*** General Infos ***												
Version	Date	Sample Rate (Hz)	Drilling Cycle ID	Decimal Separator separator								
8	2024-05-08T17:51:30Z	100	1031011012	Comma								
												
*** Control Box Datas ***												
BOX Name	BOX Type	BOX SN	BOX STSE	BOX Customer Info	BOX Release	BOX Firmware Version	BOX Production Date	BOX Maintenance Date	BOX Operation Time	BOX Power Supply Limit	BOX Lub Pump Coef.	Pset Default Selection
20100004	CB V2 - Standard	20100004			0	V 3.2.0	01/01/2016	01/01/2016	655	3000	 1,000	FALSE
												
*** Motor Datas ***												
Motor Name	Motor Type	Motor STSE	Motor SN	Motor Operation Time	Motor M2 Ratio	Motor M1 CW Ratio	Motor M1 CCW Ratio	Motor Winch Limit				
Light_EDU\u0000	L_EDU	17070141	17070141	21053	 0,947	 0,947	0				
												
*** Head Datas ***												
Head Name	Head Type	Head TAG UID	Head Global Counter	Head Local Counter 1	Head Local Counter 2	Head M1 Ratio	Head M2 Ratio	Customer Info				
17070141	Concentric Collet	Light	798	0	559	 1,000	 1,000	40376604				
								
*** Pset ***								
Pset Type	Pset Nb.	Version						
Standard	0	9						
								
*** Cycle Parameters ***								
Max cycles Limit 1	Max cycles Limit 2	CC Pressure	Max Stroke (mm)	Vacuum Delay (ms)	Vacuum Flow min (m/s)	Retract Rotation Speed (rpm)	Retract Feed (m/s)	Disable Abort
1000	0	9	0,000	0	0,000	300	13,684	0
								
Comment								
								
Cutting tool breakage On/Off	Cutting tool breakage DEP (mm)	Cutting tool breakage Thrust (A)	Cutting tool breakage Torque (A)
0,000	0,000	0,000	0,000
Lub Preload Time (s)	Lub Preload Lub Air	Lub Preload Lub Flow	Lub Preload Timeout (s)
0,000	5,000	30,000	0,000

*** Program ***																					
Step Nb	Step On/Off	Stroke (mm)	RPM	Feed (mm/s)	Feed (mm/tr)	Thrust Max (A)	Torque Max (A)	Thrust Min (A)	Torque Min (A)	Thrust Safety (A)	Torque Safety (A)	Gap (mm)	Peck (nb)	Delay (ms)	Stroke Limit (A)Thrust Limit (A)	Torque Limit (A)	LUB AIR	LUB FLOW	Vacuum	Material
0,000	1,000	5,000	4000,000	3,000	0,045	0,000	0,000	0,000	0,000	0,000	0,000	0,000	0,000	0,000	0,000	0,000	0,000	0,000	0,000	0,000	0,000
1,000	1,000	5,000	4000,000	3,000	0,045	0,000	0,000	0,000	0,000	0,000	0,000	0,000	0,000	0,000	0,000	0,000	0,000	0,000	0,000	0,000	0,000
									
*** Results ***									
Cycle Time (s)	Distance (mm)	Cycle OK							
6,380000	10,020	False							
									
*** Step Results ***									
Step Number	Stop Code	Duration (s)	Distance M1	Distance M2	M1 Max Amp	M2 Max Amp	M1 No Load Amp	M2 No Load Amp	Gap Max (mm)
0,000	64,000	2,160	0,000	5,018	0,000	0,035	6,201	0,410	0,000
1,000	64,000	2,600	0,000	5,018	0,000	0,012	5,859	0,410	0,000
										
*** Datas ***										
Position (mm)	I Torque (A)	I Thrust (A)	I Torque Empty (A)	I Thrust Empty (A)	Step (nb)	Stop code	Torque Power (W)	Gap Length (mm)
-0.654	-0.049	0.000	4.639	0.316	0.000	0.000	81.000	0.000
-0.684	-0.098	0.000	4.639	0.316	0.000	0.000	82.000	0.000
-0.715	-0.098	0.012	4.639	0.316	0.000	0.000	84.000	0.000
-0.741	-0.146	0.000	4.639	0.316	0.000	0.000	85.000	0.000
-0.772	-0.146	0.000	4.639	0.316	0.000	0.000	87.000	0.000
-0.802	-0.146	0.012	4.639	0.316	0.000	0.000	89.000	0.000
-0.832	-0.146	0.000	4.639	0.316	0.000	0.000	90.000	0.000
-0.859	-0.146	0.000	4.639	0.316	0.000	0.000	92.000	0.000
-0.889	-0.146	0.000	4.639	0.316	0.000	0.000	93.000	0.000
-0.920	-0.146	0.000	4.639	0.316	0.000	0.000	95.000	0.000
-0.950	-0.146	0.000	4.639	0.316	0.000	0.000	96.000	0.000
-0.977	-0.146	0.012	4.639	0.316	0.000	0.000	97.000	0.000
-1.007	-0.146	0.012	4.639	0.316	0.000	0.000	98.000	0.000
-1.038	-0.098	0.012	4.639	0.316	0.000	0.000	100.000	0.000
-1.064	-0.098	0.000	4.639	0.316	0.000	0.000	101.000	0.000
-1.095	-0.049	0.012	4.639	0.316	0.000	0.000	102.000	0.000
-1.125	0.000	0.012	4.639	0.316	0.000	0.000	104.000	0.000
-1.152	0.049	0.012	4.639	0.316	0.000	0.000	106.000	0.000
-1.182	0.049	0.012	4.639	0.316	0.000	0.000	106.000	0.000
-1.213	0.000	0.012	4.639	0.316	0.000	0.000	105.000	0.000
-1.243	0.049	0.000	4.639	0.316	0.000	0.000	106.000	0.000
-1.270	0.000	0.000	4.639	0.316	0.000	0.000	106.000	0.000
-1.300	0.049	0.000	4.639	0.316	0.000	0.000	106.000	0.000
-1.330	0.000	0.012	4.639	0.316	0.000	0.000	106.000	0.000
-1.357	0.049	0.012	4.639	0.316	0.000	0.000	107.000	0.000
-1.387	0.049	0.000	4.639	0.316	0.000	0.000	107.000	0.000
-1.418	0.000	0.000	4.639	0.316	0.000	0.000	105.000	0.000
-1.448	0.000	0.000	4.639	0.316	0.000	0.000	105.000	0.000
-1.475	0.049	0.012	4.639	0.316	0.000	0.000	106.000	0.000
-1.505	0.000	0.000	4.639	0.316	0.000	0.000	106.000	0.000
-1.536	0.049	0.012	4.639	0.316	0.000	0.000	105.000	0.000
-1.562	0.049	0.012	4.639	0.316	0.000	0.000	105.000	0.000
-1.593	0.000	0.012	4.639	0.316	0.000	0.000	103.000	0.000
-1.623	0.000	0.012	4.639	0.316	0.000	0.000	103.000	0.000
-1.650	0.049	0.000	4.639	0.316	0.000	0.000	102.000	0.000
-1.680	0.000	0.000	4.639	0.316	0.000	0.000	102.000	0.000
-1.711	0.000	0.000	4.639	0.316	0.000	0.000	102.000	0.000
-1.741	0.000	0.012	4.639	0.316	0.000	0.000	101.000	0.000
-1.768	0.000	0.000	4.639	0.316	0.000	0.000	101.000	0.000
-1.798	0.049	0.000	4.639	0.316	0.000	0.000	101.000	0.000
-1.828	0.000	0.012	4.639	0.316	0.000	0.000	100.000	0.000
-1.855	0.000	0.012	4.639	0.316	0.000	0.000	99.000	0.000
-1.885	0.000	0.000	4.639	0.316	0.000	0.000	99.000	0.000
-1.916	0.000	0.000	4.639	0.316	0.000	0.000	98.000	0.000
-1.946	0.000	0.000	4.639	0.316	0.000	0.000	98.000	0.000
-1.973	0.000	0.000	4.639	0.316	0.000	0.000	97.000	0.000
-2.003	0.000	0.000	4.639	0.316	0.000	0.000	97.000	0.000
-2.034	0.000	0.000	4.639	0.316	0.000	0.000	97.000	0.000
-2.060	0.000	0.000	4.639	0.316	0.000	0.000	96.000	0.000
-2.091	0.000	0.000	4.639	0.316	0.000	0.000	96.000	0.000
-2.121	0.000	0.000	4.639	0.316	0.000	0.000	95.000	0.000
-2.148	0.000	0.012	4.639	0.316	0.000	0.000	95.000	0.000
-2.178	0.000	0.000	4.639	0.316	0.000	0.000	95.000	0.000
-2.208	0.000	0.000	4.639	0.316	0.000	0.000	95.000	0.000
-2.239	0.000	0.000	4.639	0.316	0.000	0.000	95.000	0.000
-2.266	0.000	0.000	4.639	0.316	0.000	0.000	94.000	0.000
-2.296	0.000	0.000	4.639	0.316	0.000	0.000	94.000	0.000
-2.326	0.000	0.000	4.639	0.316	0.000	0.000	94.000	0.000
-2.353	0.000	0.000	4.639	0.316	0.000	0.000	94.000	0.000
-2.383	0.000	0.012	4.639	0.316	0.000	0.000	94.000	0.000
-2.414	0.000	0.012	4.639	0.316	0.000	0.000	94.000	0.000
-2.440	0.000	0.012	4.639	0.316	0.000	0.000	94.000	0.000
-2.471	0.000	0.000	4.639	0.316	0.000	0.000	93.000	0.000
-2.501	-0.049	0.000	4.639	0.316	0.000	0.000	92.000	0.000
-2.532	-0.049	0.000	4.639	0.316	0.000	0.000	92.000	0.000
-2.558	-0.049	0.012	4.639	0.316	0.000	0.000	92.000	0.000
-2.589	-0.098	0.000	4.639	0.316	0.000	0.000	91.000	0.000
-2.619	-0.098	0.012	4.639	0.316	0.000	0.000	91.000	0.000
-2.646	-0.098	0.012	4.639	0.316	0.000	0.000	92.000	0.000
-2.676	-0.098	0.000	4.639	0.316	0.000	0.000	92.000	0.000
-2.706	-0.049	0.012	4.639	0.316	0.000	0.000	93.000	0.000
-2.737	-0.049	0.000	4.639	0.316	0.000	0.000	93.000	0.000
-2.763	-0.049	0.000	4.639	0.316	0.000	0.000	93.000	0.000
-2.794	0.000	0.012	4.639	0.316	0.000	0.000	94.000	0.000
-2.824	0.049	0.000	4.639	0.316	0.000	0.000	95.000	0.000
-2.851	0.049	0.012	4.639	0.316	0.000	0.000	95.000	0.000
-2.881	0.000	0.000	4.639	0.316	0.000	0.000	94.000	0.000
-2.912	0.000	0.000	4.639	0.316	0.000	0.000	95.000	0.000
-2.942	0.049	0.000	4.639	0.316	0.000	0.000	96.000	0.000
-2.969	0.000	0.000	4.639	0.316	0.000	0.000	95.000	0.000
-2.999	0.000	0.000	4.639	0.316	0.000	0.000	95.000	0.000
-3.030	0.000	0.012	4.639	0.316	0.000	0.000	95.000	0.000
-3.056	0.000	0.012	4.639	0.316	0.000	0.000	95.000	0.000
-3.087	0.000	0.012	4.639	0.316	0.000	0.000	95.000	0.000
-3.117	0.000	0.012	4.639	0.316	0.000	0.000	95.000	0.000
-3.147	0.000	0.012	4.639	0.316	0.000	0.000	95.000	0.000
-3.174	0.000	0.000	4.639	0.316	0.000	0.000	97.000	0.000
-3.204	0.000	0.000	4.639	0.316	0.000	0.000	96.000	0.000
-3.235	0.049	0.012	4.639	0.316	0.000	0.000	96.000	0.000
-3.261	0.000	0.012	4.639	0.316	0.000	0.000	96.000	0.000
-3.292	0.000	0.000	4.639	0.316	0.000	0.000	96.000	0.000
-3.322	0.000	0.000	4.639	0.316	0.000	0.000	96.000	0.000
-3.353	0.000	0.000	4.639	0.316	0.000	0.000	96.000	0.000
-3.379	0.000	0.012	4.639	0.316	0.000	0.000	96.000	0.000
-3.410	0.000	0.000	4.639	0.316	0.000	0.000	96.000	0.000
-3.440	0.000	0.000	4.639	0.316	0.000	0.000	97.000	0.000
-3.467	0.000	0.012	4.639	0.316	0.000	0.000	97.000	0.000
-3.497	0.000	0.000	4.639	0.316	0.000	0.000	97.000	0.000
-3.527	0.000	0.012	4.639	0.316	0.000	0.000	97.000	0.000
-3.554	0.000	0.012	4.639	0.316	0.000	0.000	97.000	0.000
-3.585	0.000	0.012	4.639	0.316	0.000	0.000	97.000	0.000
-3.615	0.000	0.012	4.639	0.316	0.000	0.000	97.000	0.000
-3.645	-0.049	0.000	4.639	0.316	0.000	0.000	96.000	0.000
-3.672	-0.049	0.000	4.639	0.316	0.000	0.000	96.000	0.000
-3.702	-0.098	0.012	4.639	0.316	0.000	0.000	95.000	0.000
-3.733	-0.146	0.000	4.639	0.316	0.000	0.000	94.000	0.000
-3.759	-0.146	0.000	4.639	0.316	0.000	0.000	94.000	0.000
-3.790	-0.195	0.000	4.639	0.316	0.000	0.000	93.000	0.000
-3.820	-0.195	0.012	4.639	0.316	0.000	0.000	93.000	0.000
-3.847	-0.146	0.012	4.639	0.316	0.000	0.000	93.000	0.000
-3.877	-0.146	0.000	4.639	0.316	0.000	0.000	94.000	0.000
-3.908	-0.146	0.012	4.639	0.316	0.000	0.000	94.000	0.000
-3.938	-0.146	0.012	4.639	0.316	0.000	0.000	94.000	0.000
-3.965	-0.146	0.000	4.639	0.316	0.000	0.000	94.000	0.000
-3.995	-0.146	0.012	4.639	0.316	0.000	0.000	94.000	0.000
-4.025	-0.146	0.000	4.639	0.316	0.000	0.000	94.000	0.000
-4.052	-0.146	0.000	4.639	0.316	0.000	0.000	94.000	0.000
-4.082	-0.146	0.012	4.639	0.316	0.000	0.000	94.000	0.000
-4.113	-0.146	0.000	4.639	0.316	0.000	0.000	94.000	0.000
-4.143	-0.146	0.000	4.639	0.316	0.000	0.000	94.000	0.000
-4.170	-0.146	0.012	4.639	0.316	0.000	0.000	94.000	0.000
-4.200	-0.146	0.000	4.639	0.316	0.000	0.000	94.000	0.000
-4.231	-0.146	0.012	4.639	0.316	0.000	0.000	93.000	0.000
-4.257	-0.098	0.000	4.639	0.316	0.000	0.000	94.000	0.000
-4.288	-0.098	0.000	4.639	0.316	0.000	0.000	94.000	0.000
-4.318	-0.049	0.012	4.639	0.316	0.000	0.000	95.000	0.000
-4.345	0.000	0.000	4.639	0.316	0.000	0.000	96.000	0.000
-4.375	0.049	0.000	4.639	0.316	0.000	0.000	97.000	0.000
-4.406	0.049	0.000	4.639	0.316	0.000	0.000	97.000	0.000
-4.436	0.000	0.012	4.639	0.316	0.000	0.000	96.000	0.000
-4.463	0.000	0.000	4.639	0.316	0.000	0.000	96.000	0.000
-4.493	0.000	0.000	4.639	0.316	0.000	0.000	96.000	0.000
-4.523	0.000	0.000	4.639	0.316	0.000	0.000	96.000	0.000
-4.550	0.000	0.000	4.639	0.316	0.000	0.000	96.000	0.000
-4.580	0.000	0.000	4.639	0.316	0.000	0.000	96.000	0.000
-4.611	0.000	0.000	4.639	0.316	0.000	0.000	96.000	0.000
-4.641	0.049	0.000	4.639	0.316	0.000	0.000	97.000	0.000
-4.668	0.000	0.000	4.639	0.316	0.000	0.000	96.000	0.000
-4.698	0.000	0.012	4.639	0.316	0.000	0.000	96.000	0.000
-4.729	0.000	0.012	4.639	0.316	0.000	0.000	96.000	0.000
-4.755	0.000	0.000	4.639	0.316	0.000	0.000	96.000	0.000
-4.786	0.000	0.000	4.639	0.316	0.000	0.000	96.000	0.000
-4.816	0.000	0.000	4.639	0.316	0.000	0.000	96.000	0.000
-4.847	0.000	0.012	4.639	0.316	0.000	0.000	96.000	0.000
-4.873	0.000	0.000	4.639	0.316	0.000	0.000	96.000	0.000
-4.904	0.000	0.000	4.639	0.316	0.000	0.000	96.000	0.000
-4.934	0.000	0.000	4.639	0.316	0.000	0.000	97.000	0.000
-4.961	0.000	0.000	4.639	0.316	0.000	0.000	96.000	0.000
-4.991	0.049	0.000	4.639	0.316	0.000	0.000	96.000	0.000
-5.021	0.000	0.000	4.639	0.316	0.000	0.000	97.000	0.000
-5.048	0.049	0.000	4.639	0.316	0.000	0.000	97.000	0.000
-5.078	0.049	0.012	4.639	0.316	0.000	0.000	97.000	0.000
-5.109	0.049	0.012	4.639	0.316	0.000	0.000	97.000	0.000
-5.139	0.049	0.000	4.639	0.316	0.000	0.000	97.000	0.000
-5.166	0.049	0.012	4.639	0.316	0.000	0.000	97.000	0.000
-5.196	0.049	0.000	4.639	0.316	0.000	0.000	97.000	0.000
-5.227	0.049	0.012	4.639	0.316	0.000	0.000	97.000	0.000
-5.257	0.098	0.000	4.639	0.316	0.000	0.000	98.000	0.000
-5.284	0.195	0.012	4.639	0.316	0.000	0.000	100.000	0.000
-5.284	0.195	0.012	4.639	0.316	0.000	0.000	100.000	0.000
-5.284	0.195	0.012	4.639	0.316	0.000	1.000	100.000	0.000
-5.284	0.195	0.012	4.639	0.316	0.000	1.000	100.000	0.000
-5.189	-0.049	-0.012	4.492	0.328	1.000	0.000	92.000	0.000
-5.219	0.000	0.000	4.492	0.328	1.000	0.000	93.000	0.000
-5.249	0.000	-0.012	4.492	0.328	1.000	0.000	93.000	0.000
-5.280	0.000	0.000	4.492	0.328	1.000	0.000	93.000	0.000
-5.310	0.000	-0.012	4.492	0.328	1.000	0.000	93.000	0.000
-5.337	0.000	-0.012	4.492	0.328	1.000	0.000	93.000	0.000
-5.367	0.000	-0.012	4.492	0.328	1.000	0.000	93.000	0.000
-5.394	0.000	-0.012	4.492	0.328	1.000	0.000	93.000	0.000
-5.424	0.000	-0.012	4.492	0.328	1.000	0.000	93.000	0.000
-5.455	0.000	0.000	4.492	0.328	1.000	0.000	93.000	0.000
-5.481	0.098	0.000	4.492	0.328	1.000	0.000	95.000	0.000
-5.512	0.195	0.000	4.492	0.328	1.000	0.000	97.000	0.000
-5.542	0.391	0.023	4.492	0.328	1.000	0.000	101.000	0.000
-5.569	0.586	0.047	4.492	0.328	1.000	0.000	105.000	0.000
-5.599	0.879	0.047	4.492	0.328	1.000	0.000	111.000	0.000
-5.630	1.172	0.059	4.492	0.328	1.000	0.000	117.000	0.000
-5.660	1.514	0.070	4.492	0.328	1.000	0.000	124.000	0.000
-5.687	1.855	0.070	4.492	0.328	1.000	0.000	132.000	0.000
-5.717	2.197	0.082	4.492	0.328	1.000	0.000	139.000	0.000
-5.747	2.539	0.094	4.492	0.328	1.000	0.000	146.000	0.000
-5.774	2.783	0.082	4.492	0.328	1.000	0.000	151.000	0.000
-5.804	2.979	0.082	4.492	0.328	1.000	0.000	155.000	0.000
-5.835	3.125	0.094	4.492	0.328	1.000	0.000	158.000	0.000
-5.865	3.223	0.082	4.492	0.328	1.000	0.000	160.000	0.000
-5.892	3.271	0.094	4.492	0.328	1.000	0.000	162.000	0.000
-5.922	3.271	0.094	4.492	0.328	1.000	0.000	162.000	0.000
-5.953	3.271	0.082	4.492	0.328	1.000	0.000	162.000	0.000
-5.979	3.271	0.094	4.492	0.328	1.000	0.000	162.000	0.000
-6.010	3.271	0.094	4.492	0.328	1.000	0.000	162.000	0.000
-6.040	3.320	0.082	4.492	0.328	1.000	0.000	163.000	0.000
-6.070	3.271	0.082	4.492	0.328	1.000	0.000	162.000	0.000
-6.097	3.271	0.082	4.492	0.328	1.000	0.000	163.000	0.000
-6.128	3.320	0.082	4.492	0.328	1.000	0.000	163.000	0.000
-6.158	3.320	0.082	4.492	0.328	1.000	0.000	163.000	0.000
-6.185	3.271	0.082	4.492	0.328	1.000	0.000	162.000	0.000
-6.215	3.320	0.082	4.492	0.328	1.000	0.000	164.000	0.000
-6.245	3.320	0.082	4.492	0.328	1.000	0.000	164.000	0.000
-6.272	3.320	0.082	4.492	0.328	1.000	0.000	164.000	0.000
-6.302	3.320	0.094	4.492	0.328	1.000	0.000	164.000	0.000
-6.333	3.369	0.082	4.492	0.328	1.000	0.000	165.000	0.000
-6.363	3.418	0.082	4.492	0.328	1.000	0.000	166.000	0.000
-6.390	3.516	0.082	4.492	0.328	1.000	0.000	168.000	0.000
-6.420	3.516	0.094	4.492	0.328	1.000	0.000	168.000	0.000
-6.451	3.613	0.082	4.492	0.328	1.000	0.000	171.000	0.000
-6.477	3.662	0.082	4.492	0.328	1.000	0.000	172.000	0.000
-6.508	3.711	0.082	4.492	0.328	1.000	0.000	173.000	0.000
-6.538	3.760	0.082	4.492	0.328	1.000	0.000	174.000	0.000
-6.568	3.760	0.082	4.492	0.328	1.000	0.000	174.000	0.000
-6.595	3.809	0.082	4.492	0.328	1.000	0.000	175.000	0.000
-6.625	3.857	0.082	4.492	0.328	1.000	0.000	176.000	0.000
-6.656	3.906	0.082	4.492	0.328	1.000	0.000	177.000	0.000
-6.682	3.906	0.094	4.492	0.328	1.000	0.000	177.000	0.000
-6.713	3.857	0.082	4.492	0.328	1.000	0.000	177.000	0.000
-6.743	3.857	0.082	4.492	0.328	1.000	0.000	177.000	0.000
-6.774	3.857	0.082	4.492	0.328	1.000	0.000	177.000	0.000
-6.800	3.857	0.082	4.492	0.328	1.000	0.000	177.000	0.000
-6.831	3.857	0.094	4.492	0.328	1.000	0.000	179.000	0.000
-6.861	3.857	0.082	4.492	0.328	1.000	0.000	178.000	0.000
-6.888	3.857	0.082	4.492	0.328	1.000	0.000	179.000	0.000
-6.918	3.857	0.082	4.492	0.328	1.000	0.000	179.000	0.000
-6.949	3.906	0.082	4.492	0.328	1.000	0.000	179.000	0.000
-6.979	3.906	0.082	4.492	0.328	1.000	0.000	180.000	0.000
-7.006	3.857	0.094	4.492	0.328	1.000	0.000	180.000	0.000
-7.036	3.906	0.094	4.492	0.328	1.000	0.000	178.000	0.000
-7.066	3.906	0.082	4.492	0.328	1.000	0.000	180.000	0.000
-7.093	3.906	0.082	4.492	0.328	1.000	0.000	180.000	0.000
-7.123	3.906	0.082	4.492	0.328	1.000	0.000	180.000	0.000
-7.154	3.906	0.082	4.492	0.328	1.000	0.000	180.000	0.000
-7.184	3.906	0.094	4.492	0.328	1.000	0.000	180.000	0.000
-7.211	3.906	0.082	4.492	0.328	1.000	0.000	180.000	0.000
-7.241	3.906	0.094	4.492	0.328	1.000	0.000	181.000	0.000
-7.272	3.906	0.094	4.492	0.328	1.000	0.000	181.000	0.000
-7.298	3.906	0.082	4.492	0.328	1.000	0.000	181.000	0.000
-7.329	3.906	0.082	4.492	0.328	1.000	0.000	181.000	0.000
-7.359	3.906	0.082	4.492	0.328	1.000	0.000	181.000	0.000
-7.386	3.906	0.082	4.492	0.328	1.000	0.000	181.000	0.000
-7.416	3.955	0.082	4.492	0.328	1.000	0.000	182.000	0.000
-7.447	4.053	0.094	4.492	0.328	1.000	0.000	184.000	0.000
-7.473	4.102	0.082	4.492	0.328	1.000	0.000	185.000	0.000
-7.504	4.150	0.082	4.492	0.328	1.000	0.000	186.000	0.000
-7.534	4.199	0.094	4.492	0.328	1.000	0.000	187.000	0.000
-7.564	4.248	0.082	4.492	0.328	1.000	0.000	189.000	0.000
-7.591	4.297	0.082	4.492	0.328	1.000	0.000	190.000	0.000
-7.621	4.297	0.082	4.492	0.328	1.000	0.000	190.000	0.000
-7.652	4.297	0.082	4.492	0.328	1.000	0.000	190.000	0.000
-7.678	4.248	0.094	4.492	0.328	1.000	0.000	189.000	0.000
-7.709	4.297	0.082	4.492	0.328	1.000	0.000	190.000	0.000
-7.739	4.297	0.094	4.492	0.328	1.000	0.000	190.000	0.000
-7.770	4.297	0.082	4.492	0.328	1.000	0.000	189.000	0.000
-7.796	4.297	0.094	4.492	0.328	1.000	0.000	190.000	0.000
-7.827	4.297	0.082	4.492	0.328	1.000	0.000	190.000	0.000
-7.857	4.297	0.082	4.492	0.328	1.000	0.000	190.000	0.000
-7.884	4.297	0.094	4.492	0.328	1.000	0.000	190.000	0.000
-7.914	4.297	0.094	4.492	0.328	1.000	0.000	190.000	0.000
-7.944	4.297	0.094	4.492	0.328	1.000	0.000	190.000	0.000
-7.975	4.297	0.094	4.492	0.328	1.000	0.000	190.000	0.000
-8.001	4.346	0.094	4.492	0.328	1.000	0.000	191.000	0.000
-8.032	4.395	0.082	4.492	0.328	1.000	0.000	192.000	0.000
-8.062	4.492	0.094	4.492	0.328	1.000	0.000	194.000	0.000
-8.089	4.492	0.094	4.492	0.328	1.000	0.000	194.000	0.000
-8.119	4.541	0.082	4.492	0.328	1.000	0.000	195.000	0.000
-8.150	4.590	0.094	4.492	0.328	1.000	0.000	196.000	0.000
-8.176	4.639	0.094	4.492	0.328	1.000	0.000	197.000	0.000
-8.207	4.687	0.082	4.492	0.328	1.000	0.000	198.000	0.000
-8.237	4.687	0.082	4.492	0.328	1.000	0.000	198.000	0.000
-8.268	4.687	0.082	4.492	0.328	1.000	0.000	198.000	0.000
-8.294	4.687	0.082	4.492	0.328	1.000	0.000	198.000	0.000
-8.325	4.687	0.094	4.492	0.328	1.000	0.000	198.000	0.000
-8.355	4.687	0.094	4.492	0.328	1.000	0.000	198.000	0.000
-8.382	4.687	0.094	4.492	0.328	1.000	0.000	198.000	0.000
-8.412	4.736	0.082	4.492	0.328	1.000	0.000	199.000	0.000
-8.442	4.736	0.094	4.492	0.328	1.000	0.000	199.000	0.000
-8.469	4.736	0.082	4.492	0.328	1.000	0.000	199.000	0.000
-8.499	4.736	0.094	4.492	0.328	1.000	0.000	199.000	0.000
-8.530	4.785	0.094	4.492	0.328	1.000	0.000	200.000	0.000
-8.560	4.834	0.094	4.492	0.328	1.000	0.000	201.000	0.000
-8.587	4.883	0.082	4.492	0.328	1.000	0.000	202.000	0.000
-8.617	4.883	0.082	4.492	0.328	1.000	0.000	202.000	0.000
-8.648	4.883	0.094	4.492	0.328	1.000	0.000	202.000	0.000
-8.678	4.883	0.094	4.492	0.328	1.000	0.000	202.000	0.000
-8.705	4.932	0.082	4.492	0.328	1.000	0.000	203.000	0.000
-8.735	4.932	0.094	4.492	0.328	1.000	0.000	203.000	0.000
-8.766	4.932	0.082	4.492	0.328	1.000	0.000	203.000	0.000
-8.792	4.932	0.082	4.492	0.328	1.000	0.000	204.000	0.000
-8.823	4.980	0.082	4.492	0.328	1.000	0.000	205.000	0.000
-8.853	4.980	0.082	4.492	0.328	1.000	0.000	205.000	0.000
-8.880	4.980	0.082	4.492	0.328	1.000	0.000	205.000	0.000
-8.910	4.980	0.082	4.492	0.328	1.000	0.000	205.000	0.000
-8.940	5.029	0.082	4.492	0.328	1.000	0.000	206.000	0.000
-8.971	5.078	0.082	4.492	0.328	1.000	0.000	207.000	0.000
-8.997	5.029	0.082	4.492	0.328	1.000	0.000	206.000	0.000
-9.028	5.078	0.082	4.492	0.328	1.000	0.000	207.000	0.000
-9.058	5.078	0.082	4.492	0.328	1.000	0.000	207.000	0.000
-9.085	5.078	0.082	4.492	0.328	1.000	0.000	207.000	0.000
-9.115	5.029	0.082	4.492	0.328	1.000	0.000	206.000	0.000
-9.146	5.078	0.082	4.492	0.328	1.000	0.000	207.000	0.000
-9.172	5.078	0.082	4.492	0.328	1.000	0.000	207.000	0.000
-9.203	5.078	0.082	4.492	0.328	1.000	0.000	207.000	0.000
-9.233	5.078	0.082	4.492	0.328	1.000	0.000	208.000	0.000
-9.263	5.078	0.082	4.492	0.328	1.000	0.000	208.000	0.000
-9.290	5.078	0.082	4.492	0.328	1.000	0.000	208.000	0.000
-9.321	5.127	0.082	4.492	0.328	1.000	0.000	209.000	0.000
-9.351	5.176	0.082	4.492	0.328	1.000	0.000	210.000	0.000
-9.378	5.273	0.082	4.492	0.328	1.000	0.000	212.000	0.000
-9.408	5.273	0.082	4.492	0.328	1.000	0.000	212.000	0.000
-9.438	5.322	0.082	4.492	0.328	1.000	0.000	213.000	0.000
-9.469	5.371	0.082	4.492	0.328	1.000	0.000	214.000	0.000
-9.495	5.371	0.070	4.492	0.328	1.000	0.000	214.000	0.000
-9.526	5.420	0.070	4.492	0.328	1.000	0.000	215.000	0.000
-9.556	5.469	0.059	4.492	0.328	1.000	0.000	215.000	0.000
-9.583	5.420	0.047	4.492	0.328	1.000	0.000	215.000	0.000
-9.613	5.420	0.047	4.492	0.328	1.000	0.000	215.000	0.000
-9.644	5.420	0.035	4.492	0.328	1.000	0.000	215.000	0.000
-9.674	5.420	0.047	4.492	0.328	1.000	0.000	215.000	0.000
-9.701	5.420	0.035	4.492	0.328	1.000	0.000	215.000	0.000
-9.731	5.371	0.035	4.492	0.328	1.000	0.000	214.000	0.000
-9.761	5.322	0.035	4.492	0.328	1.000	0.000	214.000	0.000
-9.788	5.225	0.047	4.492	0.328	1.000	0.000	211.000	0.000
-9.818	5.176	0.035	4.492	0.328	1.000	0.000	210.000	0.000
-9.849	5.127	0.035	4.492	0.328	1.000	0.000	209.000	0.000
-9.875	5.078	0.035	4.492	0.328	1.000	0.000	208.000	0.000
-9.906	5.029	0.035	4.492	0.328	1.000	0.000	207.000	0.000
-9.936	5.029	0.047	4.492	0.328	1.000	0.000	207.000	0.000
-9.967	5.029	0.047	4.492	0.328	1.000	0.000	207.000	0.000
-9.993	5.029	0.047	4.492	0.328	1.000	0.000	207.000	0.000
-10.024	5.078	0.047	4.492	0.328	1.000	0.000	208.000	0.000
-10.054	5.078	0.047	4.492	0.328	1.000	0.000	208.000	0.000
-10.081	5.078	0.047	4.492	0.328	1.000	0.000	208.000	0.000
-10.111	5.078	0.047	4.492	0.328	1.000	0.000	208.000	0.000
-10.142	5.176	0.047	4.492	0.328	1.000	0.000	210.000	0.000
-10.172	5.273	0.047	4.492	0.328	1.000	0.000	213.000	0.000
-10.199	5.322	0.047	4.492	0.328	1.000	0.000	214.000	0.000
-10.229	5.420	0.047	4.492	0.328	1.000	0.000	216.000	0.000
-10.259	5.469	0.047	4.492	0.328	1.000	0.000	217.000	0.000
-10.286	5.518	0.047	4.492	0.328	1.000	0.000	218.000	0.000
-10.316	5.518	0.047	4.492	0.328	1.000	0.000	218.000	0.000
-10.347	5.566	0.047	4.492	0.328	1.000	0.000	219.000	0.000
-10.377	5.566	0.047	4.492	0.328	1.000	0.000	219.000	0.000
-10.404	5.566	0.047	4.492	0.328	1.000	0.000	219.000	0.000
-10.434	5.566	0.047	4.492	0.328	1.000	0.000	219.000	0.000
-10.465	5.566	0.047	4.492	0.328	1.000	0.000	219.000	0.000
-10.491	5.566	0.047	4.492	0.328	1.000	0.000	219.000	0.000
-10.522	5.566	0.047	4.492	0.328	1.000	0.000	219.000	0.000
-10.552	5.566	0.047	4.492	0.328	1.000	0.000	219.000	0.000
-10.582	5.518	0.047	4.492	0.328	1.000	0.000	218.000	0.000
-10.609	5.518	0.047	4.492	0.328	1.000	0.000	218.000	0.000
-10.640	5.518	0.059	4.492	0.328	1.000	0.000	218.000	0.000
-10.670	5.566	0.059	4.492	0.328	1.000	0.000	219.000	0.000
-10.697	5.615	0.059	4.492	0.328	1.000	0.000	220.000	0.000
-10.727	5.664	0.070	4.492	0.328	1.000	0.000	221.000	0.000
-10.757	5.664	0.070	4.492	0.328	1.000	0.000	221.000	0.000
-10.788	5.664	0.070	4.492	0.328	1.000	0.000	221.000	0.000
-10.814	5.713	0.070	4.492	0.328	1.000	0.000	222.000	0.000
-10.845	5.713	0.070	4.492	0.328	1.000	0.000	222.000	0.000
-10.875	5.762	0.059	4.492	0.328	1.000	0.000	223.000	0.000
-10.902	5.762	0.059	4.492	0.328	1.000	0.000	223.000	0.000
-10.932	5.762	0.059	4.492	0.328	1.000	0.000	223.000	0.000
-10.963	5.811	0.047	4.492	0.328	1.000	0.000	224.000	0.000
-10.989	5.811	0.047	4.492	0.328	1.000	0.000	224.000	0.000
-11.020	5.811	0.047	4.492	0.328	1.000	0.000	224.000	0.000
-11.050	5.811	0.035	4.492	0.328	1.000	0.000	225.000	0.000
-11.077	5.859	0.035	4.492	0.328	1.000	0.000	226.000	0.000
-11.107	5.811	0.035	4.492	0.328	1.000	0.000	225.000	0.000
-11.137	5.811	0.047	4.492	0.328	1.000	0.000	225.000	0.000
-11.168	5.859	0.035	4.492	0.328	1.000	0.000	225.000	0.000
-11.194	5.811	0.047	4.492	0.328	1.000	0.000	225.000	0.000
-11.225	5.811	0.047	4.492	0.328	1.000	0.000	225.000	0.000
-11.255	5.811	0.035	4.492	0.328	1.000	0.000	225.000	0.000
-11.282	5.811	0.035	4.492	0.328	1.000	0.000	225.000	0.000
-11.312	5.811	0.047	4.492	0.328	1.000	0.000	225.000	0.000
-11.343	5.811	0.035	4.492	0.328	1.000	0.000	225.000	0.000
-11.373	5.762	0.035	4.492	0.328	1.000	0.000	224.000	0.000
-11.400	5.713	0.035	4.492	0.328	1.000	0.000	223.000	0.000
-11.430	5.615	0.035	4.492	0.328	1.000	0.000	221.000	0.000
-11.461	5.566	0.047	4.492	0.328	1.000	0.000	220.000	0.000
-11.487	5.469	0.047	4.492	0.328	1.000	0.000	217.000	0.000
-11.518	5.371	0.035	4.492	0.328	1.000	0.000	215.000	0.000
-11.548	5.322	0.047	4.492	0.328	1.000	0.000	214.000	0.000
-11.578	5.273	0.035	4.492	0.328	1.000	0.000	213.000	0.000
-11.605	5.273	0.035	4.492	0.328	1.000	0.000	213.000	0.000
-11.635	5.225	0.035	4.492	0.328	1.000	0.000	212.000	0.000
-11.666	5.273	0.047	4.492	0.328	1.000	0.000	212.000	0.000
-11.692	5.273	0.035	4.492	0.328	1.000	0.000	212.000	0.000
-11.723	5.273	0.035	4.492	0.328	1.000	0.000	213.000	0.000
-11.753	5.273	0.035	4.492	0.328	1.000	0.000	213.000	0.000
-11.780	5.273	0.047	4.492	0.328	1.000	0.000	213.000	0.000
-11.810	5.273	0.035	4.492	0.328	1.000	0.000	213.000	0.000
-11.841	5.273	0.035	4.492	0.328	1.000	0.000	213.000	0.000
-11.871	5.273	0.047	4.492	0.328	1.000	0.000	213.000	0.000
-11.898	5.273	0.047	4.492	0.328	1.000	0.000	213.000	0.000
-11.928	5.273	0.047	4.492	0.328	1.000	0.000	213.000	0.000
-11.959	5.273	0.035	4.492	0.328	1.000	0.000	213.000	0.000
-11.985	5.322	0.035	4.492	0.328	1.000	0.000	214.000	0.000
-12.016	5.322	0.035	4.492	0.328	1.000	0.000	214.000	0.000
-12.046	5.371	0.047	4.492	0.328	1.000	0.000	215.000	0.000
-12.076	5.469	0.035	4.492	0.328	1.000	0.000	217.000	0.000
-12.103	5.469	0.035	4.492	0.328	1.000	0.000	217.000	0.000
-12.133	5.420	0.035	4.492	0.328	1.000	0.000	217.000	0.000
-12.164	5.469	0.047	4.492	0.328	1.000	0.000	216.000	0.000
-12.190	5.420	0.035	4.492	0.328	1.000	0.000	217.000	0.000
-12.221	5.420	0.035	4.492	0.328	1.000	0.000	216.000	0.000
-12.251	5.420	0.035	4.492	0.328	1.000	0.000	217.000	0.000
-12.282	5.420	0.035	4.492	0.328	1.000	0.000	216.000	0.000
-12.308	5.469	0.047	4.492	0.328	1.000	0.000	217.000	0.000
-12.339	5.420	0.047	4.492	0.328	1.000	0.000	216.000	0.000
-12.369	5.420	0.047	4.492	0.328	1.000	0.000	216.000	0.000
-12.396	5.469	0.035	4.492	0.328	1.000	0.000	216.000	0.000
-12.426	5.469	0.035	4.492	0.328	1.000	0.000	217.000	0.000
-12.456	5.469	0.035	4.492	0.328	1.000	0.000	217.000	0.000
-12.487	5.420	0.035	4.492	0.328	1.000	0.000	216.000	0.000
-12.513	5.469	0.035	4.492	0.328	1.000	0.000	217.000	0.000
-12.544	5.469	0.035	4.492	0.328	1.000	0.000	217.000	0.000
-12.574	5.469	0.035	4.492	0.328	1.000	0.000	217.000	0.000
-12.601	5.469	0.047	4.492	0.328	1.000	0.000	216.000	0.000
-12.631	5.469	0.035	4.492	0.328	1.000	0.000	217.000	0.000
-12.662	5.469	0.047	4.492	0.328	1.000	0.000	217.000	0.000
-12.688	5.469	0.035	4.492	0.328	1.000	0.000	217.000	0.000
-12.719	5.469	0.035	4.492	0.328	1.000	0.000	217.000	0.000
-12.749	5.469	0.035	4.492	0.328	1.000	0.000	217.000	0.000
-12.780	5.469	0.035	4.492	0.328	1.000	0.000	217.000	0.000
-12.806	5.469	0.035	4.492	0.328	1.000	0.000	217.000	0.000
-12.837	5.469	0.047	4.492	0.328	1.000	0.000	217.000	0.000
-12.867	5.518	0.047	4.492	0.328	1.000	0.000	218.000	0.000
-12.894	5.566	0.035	4.492	0.328	1.000	0.000	219.000	0.000
-12.924	5.566	0.035	4.492	0.328	1.000	0.000	219.000	0.000
-12.954	5.615	0.035	4.492	0.328	1.000	0.000	220.000	0.000
-12.981	5.664	0.047	4.492	0.328	1.000	0.000	221.000	0.000
-13.011	5.615	0.047	4.492	0.328	1.000	0.000	220.000	0.000
-13.042	5.664	0.047	4.492	0.328	1.000	0.000	221.000	0.000
-13.072	5.664	0.035	4.492	0.328	1.000	0.000	221.000	0.000
-13.099	5.664	0.047	4.492	0.328	1.000	0.000	221.000	0.000
-13.129	5.615	0.047	4.492	0.328	1.000	0.000	221.000	0.000
-13.160	5.664	0.035	4.492	0.328	1.000	0.000	221.000	0.000
-13.186	5.615	0.047	4.492	0.328	1.000	0.000	220.000	0.000
-13.217	5.664	0.047	4.492	0.328	1.000	0.000	221.000	0.000
-13.247	5.664	0.035	4.492	0.328	1.000	0.000	221.000	0.000
-13.274	5.664	0.035	4.492	0.328	1.000	0.000	222.000	0.000
-13.304	5.615	0.047	4.492	0.328	1.000	0.000	221.000	0.000
-13.335	5.664	0.035	4.492	0.328	1.000	0.000	221.000	0.000
-13.365	5.664	0.047	4.492	0.328	1.000	0.000	222.000	0.000
-13.392	5.615	0.035	4.492	0.328	1.000	0.000	221.000	0.000
-13.422	5.664	0.035	4.492	0.328	1.000	0.000	222.000	0.000
-13.452	5.664	0.035	4.492	0.328	1.000	0.000	222.000	0.000
-13.479	5.615	0.035	4.492	0.328	1.000	0.000	221.000	0.000
-13.509	5.664	0.035	4.492	0.328	1.000	0.000	222.000	0.000
-13.540	5.664	0.047	4.492	0.328	1.000	0.000	221.000	0.000
-13.570	5.615	0.035	4.492	0.328	1.000	0.000	222.000	0.000
-13.597	5.615	0.035	4.492	0.328	1.000	0.000	221.000	0.000
-13.627	5.664	0.035	4.492	0.328	1.000	0.000	222.000	0.000
-13.658	5.615	0.035	4.492	0.328	1.000	0.000	221.000	0.000
-13.684	5.615	0.035	4.492	0.328	1.000	0.000	221.000	0.000
-13.715	5.615	0.035	4.492	0.328	1.000	0.000	221.000	0.000
-13.745	5.664	0.035	4.492	0.328	1.000	0.000	221.000	0.000
-13.775	5.664	0.035	4.492	0.328	1.000	0.000	222.000	0.000
-13.802	5.615	0.035	4.492	0.328	1.000	0.000	221.000	0.000
-13.802	5.615	0.035	4.492	0.328	1.000	0.000	221.000	0.000
-13.802	5.615	0.035	4.492	0.328	1.000	64.000	221.000	0.000
-13.802	5.615	0.035	4.492	0.328	1.000	64.000	221.000	0.000
-13.570	0.000	-0.012	3.320	0.141	2.000	0.000	18.000	0.000
-13.578	0.000	0.000	3.320	0.141	2.000	0.000	18.000	0.000
-13.585	0.000	0.000	3.320	0.141	2.000	0.000	18.000	0.000
-13.593	0.000	0.000	3.320	0.141	2.000	0.000	18.000	0.000
-13.601	0.000	-0.012	3.320	0.141	2.000	0.000	18.000	0.000
-13.608	0.000	0.000	3.320	0.141	2.000	0.000	18.000	0.000
-13.616	0.000	0.000	3.320	0.141	2.000	0.000	19.000	0.000
-13.623	0.000	0.000	3.320	0.141	2.000	0.000	19.000	0.000
-13.627	0.000	0.000	3.320	0.141	2.000	0.000	19.000	0.000
-13.635	0.049	0.000	3.320	0.141	2.000	0.000	19.000	0.000
-13.642	0.049	0.000	3.320	0.141	2.000	0.000	19.000	0.000
-13.650	0.098	0.000	3.320	0.141	2.000	0.000	20.000	0.000
-13.658	0.146	0.000	3.320	0.141	2.000	0.000	20.000	0.000
-13.665	0.195	0.000	3.320	0.141	2.000	0.000	20.000	0.000
-13.673	0.195	0.000	3.320	0.141	2.000	0.000	20.000	0.000
-13.680	0.146	0.000	3.320	0.141	2.000	0.000	20.000	0.000
-13.688	0.195	0.000	3.320	0.141	2.000	0.000	20.000	0.000
-13.696	0.195	0.000	3.320	0.141	2.000	0.000	20.000	0.000
-13.703	0.146	0.000	3.320	0.141	2.000	0.000	20.000	0.000
-13.711	0.195	0.000	3.320	0.141	2.000	0.000	20.000	0.000
-13.718	0.195	0.000	3.320	0.141	2.000	0.000	20.000	0.000
-13.726	0.195	0.000	3.320	0.141	2.000	0.000	20.000	0.000
-13.730	0.195	0.000	3.320	0.141	2.000	0.000	20.000	0.000
-13.737	0.195	0.000	3.320	0.141	2.000	0.000	20.000	0.000
-13.745	0.195	0.000	3.320	0.141	2.000	0.000	20.000	0.000
-13.753	0.195	-0.012	3.320	0.141	2.000	0.000	20.000	0.000
-13.760	0.195	0.000	3.320	0.141	2.000	0.000	20.000	0.000
-13.768	0.146	0.000	3.320	0.141	2.000	0.000	19.000	0.000
-13.775	0.195	0.000	3.320	0.141	2.000	0.000	20.000	0.000
-13.783	0.195	0.000	3.320	0.141	2.000	0.000	20.000	0.000
-13.791	0.195	0.000	3.320	0.141	2.000	0.000	19.000	0.000
-13.798	0.195	0.000	3.320	0.141	2.000	0.000	19.000	0.000
-13.806	0.195	0.000	3.320	0.141	2.000	0.000	19.000	0.000
-13.813	0.244	-0.012	3.320	0.141	2.000	0.000	20.000	0.000
-13.821	0.293	0.000	3.320	0.141	2.000	0.000	20.000	0.000
-13.829	0.342	0.000	3.320	0.141	2.000	0.000	20.000	0.000
-13.833	0.391	-0.012	3.320	0.141	2.000	0.000	20.000	0.000
-13.840	0.439	0.000	3.320	0.141	2.000	0.000	20.000	0.000
-13.848	0.439	0.000	3.320	0.141	2.000	0.000	20.000	0.000
-13.855	0.488	0.000	3.320	0.141	2.000	0.000	20.000	0.000
-13.863	0.537	0.000	3.320	0.141	2.000	0.000	21.000	0.000
-13.871	0.586	0.000	3.320	0.141	2.000	0.000	21.000	0.000
-13.878	0.586	0.000	3.320	0.141	2.000	0.000	21.000	0.000
-13.886	0.586	0.012	3.320	0.141	2.000	0.000	21.000	0.000
-13.893	0.635	0.012	3.320	0.141	2.000	0.000	21.000	0.000
-13.901	0.684	0.035	3.320	0.141	2.000	0.000	21.000	0.000
-13.909	0.781	0.047	3.320	0.141	2.000	0.000	22.000	0.000
-13.912	0.879	0.047	3.320	0.141	2.000	0.000	22.000	0.000
-13.920	1.025	0.047	3.320	0.141	2.000	0.000	23.000	0.000
-13.928	1.172	0.047	3.320	0.141	2.000	0.000	24.000	0.000
-13.935	1.318	0.047	3.320	0.141	2.000	0.000	24.000	0.000
-13.943	1.514	0.059	3.320	0.141	2.000	0.000	25.000	0.000
-13.950	1.660	0.070	3.320	0.141	2.000	0.000	26.000	0.000
-13.958	1.904	0.082	3.320	0.141	2.000	0.000	28.000	0.000
-13.966	2.100	0.094	3.320	0.141	2.000	0.000	29.000	0.000
-13.973	2.295	0.094	3.320	0.141	2.000	0.000	30.000	0.000
-13.981	2.490	0.094	3.320	0.141	2.000	0.000	31.000	0.000
-13.988	2.686	0.094	3.320	0.141	2.000	0.000	32.000	0.000
-13.996	2.881	0.094	3.320	0.141	2.000	0.000	33.000	0.000
-14.004	3.027	0.094	3.320	0.141	2.000	0.000	34.000	0.000
-14.007	3.174	0.094	3.320	0.141	2.000	0.000	34.000	0.000
-14.015	3.320	0.094	3.320	0.141	2.000	0.000	35.000	0.000
-14.023	3.369	0.105	3.320	0.141	2.000	0.000	35.000	0.000
-14.030	3.467	0.105	3.320	0.141	2.000	0.000	36.000	0.000
-14.038	3.564	0.105	3.320	0.141	2.000	0.000	37.000	0.000
-14.045	3.613	0.105	3.320	0.141	2.000	0.000	37.000	0.000
-14.053	3.662	0.117	3.320	0.141	2.000	0.000	37.000	0.000
-14.061	3.711	0.117	3.320	0.141	2.000	0.000	38.000	0.000
-14.068	3.760	0.117	3.320	0.141	2.000	0.000	38.000	0.000
-14.076	3.760	0.129	3.320	0.141	2.000	0.000	38.000	0.000
-14.083	3.809	0.129	3.320	0.141	2.000	0.000	39.000	0.000
-14.091	3.857	0.129	3.320	0.141	2.000	0.000	39.000	0.000
-14.099	3.857	0.141	3.320	0.141	2.000	0.000	39.000	0.000
-14.106	3.906	0.141	3.320	0.141	2.000	0.000	39.000	0.000
-14.114	3.906	0.129	3.320	0.141	2.000	0.000	40.000	0.000
-14.118	3.906	0.129	3.320	0.141	2.000	0.000	40.000	0.000
-14.125	3.906	0.129	3.320	0.141	2.000	0.000	40.000	0.000
-14.133	3.955	0.129	3.320	0.141	2.000	0.000	40.000	0.000
-14.140	4.004	0.129	3.320	0.141	2.000	0.000	41.000	0.000
-14.148	4.053	0.129	3.320	0.141	2.000	0.000	41.000	0.000
-14.156	4.102	0.129	3.320	0.141	2.000	0.000	41.000	0.000
-14.163	4.102	0.129	3.320	0.141	2.000	0.000	42.000	0.000
-14.171	4.102	0.129	3.320	0.141	2.000	0.000	42.000	0.000
-14.178	4.102	0.117	3.320	0.141	2.000	0.000	42.000	0.000
-14.186	4.102	0.117	3.320	0.141	2.000	0.000	42.000	0.000
-14.194	4.102	0.105	3.320	0.141	2.000	0.000	42.000	0.000
-14.201	4.102	0.105	3.320	0.141	2.000	0.000	42.000	0.000
-14.209	4.102	0.094	3.320	0.141	2.000	0.000	42.000	0.000
-14.216	4.102	0.094	3.320	0.141	2.000	0.000	43.000	0.000
-14.220	4.102	0.082	3.320	0.141	2.000	0.000	43.000	0.000
-14.228	4.102	0.094	3.320	0.141	2.000	0.000	43.000	0.000
-14.235	4.102	0.094	3.320	0.141	2.000	0.000	43.000	0.000
-14.243	4.102	0.094	3.320	0.141	2.000	0.000	43.000	0.000
-14.251	4.053	0.082	3.320	0.141	2.000	0.000	43.000	0.000
-14.258	4.102	0.082	3.320	0.141	2.000	0.000	43.000	0.000
-14.266	4.102	0.082	3.320	0.141	2.000	0.000	43.000	0.000
-14.273	4.053	0.094	3.320	0.141	2.000	0.000	43.000	0.000
-14.281	4.102	0.094	3.320	0.141	2.000	0.000	43.000	0.000
-14.289	4.102	0.094	3.320	0.141	2.000	0.000	44.000	0.000
-14.296	4.102	0.082	3.320	0.141	2.000	0.000	44.000	0.000
-14.304	4.102	0.082	3.320	0.141	2.000	0.000	44.000	0.000
-14.311	4.150	0.094	3.320	0.141	2.000	0.000	44.000	0.000
-14.315	4.199	0.082	3.320	0.141	2.000	0.000	44.000	0.000
-14.323	4.297	0.094	3.320	0.141	2.000	0.000	45.000	0.000
-14.330	4.297	0.082	3.320	0.141	2.000	0.000	45.000	0.000
-14.338	4.346	0.094	3.320	0.141	2.000	0.000	45.000	0.000
-14.346	4.395	0.094	3.320	0.141	2.000	0.000	46.000	0.000
-14.353	4.395	0.094	3.320	0.141	2.000	0.000	46.000	0.000
-14.361	4.443	0.094	3.320	0.141	2.000	0.000	46.000	0.000
-14.368	4.492	0.094	3.320	0.141	2.000	0.000	46.000	0.000
-14.376	4.492	0.094	3.320	0.141	2.000	0.000	46.000	0.000
-14.384	4.492	0.094	3.320	0.141	2.000	0.000	46.000	0.000
-14.391	4.443	0.094	3.320	0.141	2.000	0.000	46.000	0.000
-14.399	4.492	0.094	3.320	0.141	2.000	0.000	46.000	0.000
-14.406	4.492	0.094	3.320	0.141	2.000	0.000	46.000	0.000
-14.414	4.492	0.094	3.320	0.141	2.000	0.000	46.000	0.000
-14.418	4.492	0.082	3.320	0.141	2.000	0.000	46.000	0.000
-14.425	4.443	0.082	3.320	0.141	2.000	0.000	46.000	0.000
-14.433	4.492	0.094	3.320	0.141	2.000	0.000	46.000	0.000
-14.441	4.492	0.082	3.320	0.141	2.000	0.000	46.000	0.000
-14.448	4.492	0.094	3.320	0.141	2.000	0.000	46.000	0.000
-14.456	4.492	0.094	3.320	0.141	2.000	0.000	46.000	0.000
-14.464	4.492	0.082	3.320	0.141	2.000	0.000	46.000	0.000
-14.471	4.492	0.094	3.320	0.141	2.000	0.000	46.000	0.000
-14.479	4.541	0.094	3.320	0.141	2.000	0.000	47.000	0.000
-14.486	4.590	0.094	3.320	0.141	2.000	0.000	47.000	0.000
-14.494	4.639	0.094	3.320	0.141	2.000	0.000	47.000	0.000
-14.502	4.687	0.094	3.320	0.141	2.000	0.000	48.000	0.000
-14.509	4.687	0.094	3.320	0.141	2.000	0.000	48.000	0.000
-14.517	4.736	0.094	3.320	0.141	2.000	0.000	48.000	0.000
-14.521	4.736	0.094	3.320	0.141	2.000	0.000	48.000	0.000
-14.528	4.785	0.094	3.320	0.141	2.000	0.000	48.000	0.000
-14.536	4.785	0.094	3.320	0.141	2.000	0.000	48.000	0.000
-14.543	4.785	0.082	3.320	0.141	2.000	0.000	48.000	0.000
-14.551	4.834	0.094	3.320	0.141	2.000	0.000	48.000	0.000
-14.559	4.883	0.094	3.320	0.141	2.000	0.000	49.000	0.000
-14.566	4.834	0.094	3.320	0.141	2.000	0.000	49.000	0.000
-14.574	4.834	0.094	3.320	0.141	2.000	0.000	49.000	0.000
-14.581	4.883	0.094	3.320	0.141	2.000	0.000	49.000	0.000
-14.589	4.834	0.094	3.320	0.141	2.000	0.000	48.000	0.000
-14.597	4.883	0.094	3.320	0.141	2.000	0.000	49.000	0.000
-14.604	4.834	0.094	3.320	0.141	2.000	0.000	48.000	0.000
-14.612	4.883	0.094	3.320	0.141	2.000	0.000	49.000	0.000
-14.619	4.883	0.094	3.320	0.141	2.000	0.000	49.000	0.000
-14.623	4.883	0.094	3.320	0.141	2.000	0.000	49.000	0.000
-14.631	4.883	0.094	3.320	0.141	2.000	0.000	49.000	0.000
-14.638	4.883	0.094	3.320	0.141	2.000	0.000	49.000	0.000
-14.646	4.932	0.094	3.320	0.141	2.000	0.000	49.000	0.000
-14.654	4.980	0.094	3.320	0.141	2.000	0.000	49.000	0.000
-14.661	5.029	0.094	3.320	0.141	2.000	0.000	50.000	0.000
-14.669	5.078	0.094	3.320	0.141	2.000	0.000	50.000	0.000
-14.676	5.078	0.094	3.320	0.141	2.000	0.000	50.000	0.000
-14.684	5.029	0.082	3.320	0.141	2.000	0.000	50.000	0.000
-14.692	5.078	0.094	3.320	0.141	2.000	0.000	50.000	0.000
-14.699	5.078	0.094	3.320	0.141	2.000	0.000	50.000	0.000
-14.707	5.078	0.094	3.320	0.141	2.000	0.000	50.000	0.000
-14.714	5.078	0.094	3.320	0.141	2.000	0.000	50.000	0.000
-14.722	5.078	0.094	3.320	0.141	2.000	0.000	50.000	0.000
-14.726	5.078	0.094	3.320	0.141	2.000	0.000	50.000	0.000
-14.733	5.029	0.094	3.320	0.141	2.000	0.000	50.000	0.000
-14.741	5.078	0.094	3.320	0.141	2.000	0.000	50.000	0.000
-14.749	5.029	0.094	3.320	0.141	2.000	0.000	50.000	0.000
-14.756	5.029	0.094	3.320	0.141	2.000	0.000	50.000	0.000
-14.764	5.078	0.094	3.320	0.141	2.000	0.000	50.000	0.000
-14.771	5.078	0.094	3.320	0.141	2.000	0.000	50.000	0.000
-14.779	5.127	0.094	3.320	0.141	2.000	0.000	50.000	0.000
-14.787	5.176	0.094	3.320	0.141	2.000	0.000	50.000	0.000
-14.794	5.273	0.082	3.320	0.141	2.000	0.000	51.000	0.000
-14.802	5.371	0.094	3.320	0.141	2.000	0.000	52.000	0.000
-14.809	5.469	0.094	3.320	0.141	2.000	0.000	52.000	0.000
-14.813	5.566	0.094	3.320	0.141	2.000	0.000	53.000	0.000
-14.821	5.664	0.094	3.320	0.141	2.000	0.000	54.000	0.000
-14.828	5.713	0.105	3.320	0.141	2.000	0.000	54.000	0.000
-14.836	5.811	0.117	3.320	0.141	2.000	0.000	55.000	0.000
-14.844	5.908	0.129	3.320	0.141	2.000	0.000	55.000	0.000
-14.851	6.006	0.141	3.320	0.141	2.000	0.000	56.000	0.000
-14.859	6.103	0.141	3.320	0.141	2.000	0.000	57.000	0.000
-14.866	6.250	0.129	3.320	0.141	2.000	0.000	58.000	0.000
-14.874	6.396	0.141	3.320	0.141	2.000	0.000	58.000	0.000
-14.882	6.543	0.129	3.320	0.141	2.000	0.000	59.000	0.000
-14.889	6.689	0.129	3.320	0.141	2.000	0.000	60.000	0.000
-14.897	6.836	0.141	3.320	0.141	2.000	0.000	61.000	0.000
-14.904	6.982	0.141	3.320	0.141	2.000	0.000	62.000	0.000
-14.908	7.080	0.141	3.320	0.141	2.000	0.000	63.000	0.000
-14.916	7.227	0.141	3.320	0.141	2.000	0.000	63.000	0.000
-14.923	7.324	0.152	3.320	0.141	2.000	0.000	64.000	0.000
-14.931	7.471	0.164	3.320	0.141	2.000	0.000	65.000	0.000
-14.939	7.568	0.164	3.320	0.141	2.000	0.000	66.000	0.000
-14.946	7.666	0.187	3.320	0.141	2.000	0.000	67.000	0.000
-14.954	7.812	0.187	3.320	0.141	2.000	0.000	68.000	0.000
-14.961	7.910	0.187	3.320	0.141	2.000	0.000	68.000	0.000
-14.969	8.057	0.187	3.320	0.141	2.000	0.000	69.000	0.000
-14.977	8.203	0.187	3.320	0.141	2.000	0.000	70.000	0.000
-14.984	8.350	0.187	3.320	0.141	2.000	0.000	71.000	0.000
-14.988	8.545	0.199	3.320	0.141	2.000	0.000	72.000	0.000
-14.996	8.789	0.211	3.320	0.141	2.000	0.000	74.000	0.000
-15.003	8.984	0.234	3.320	0.141	2.000	0.000	75.000	0.000
-15.011	9.228	0.234	3.320	0.141	2.000	0.000	77.000	0.000
-15.018	9.473	0.246	3.320	0.141	2.000	0.000	79.000	0.000
-15.026	9.717	0.258	3.320	0.141	2.000	0.000	80.000	0.000
-15.034	9.912	0.281	3.320	0.141	2.000	0.000	81.000	0.000
-15.041	10.156	0.281	3.320	0.141	2.000	0.000	83.000	0.000
-15.049	10.352	0.293	3.320	0.141	2.000	0.000	84.000	0.000
-15.056	10.596	0.316	3.320	0.141	2.000	0.000	86.000	0.000
-15.060	10.791	0.328	3.320	0.141	2.000	0.000	88.000	0.000
-15.068	11.035	0.340	3.320	0.141	2.000	0.000	89.000	0.000
-15.075	11.328	0.351	3.320	0.141	2.000	0.000	91.000	0.000
-15.083	11.572	0.375	3.320	0.141	2.000	0.000	93.000	0.000
-15.091	11.865	0.375	3.320	0.141	2.000	0.000	94.000	0.000
-15.098	12.109	0.375	3.320	0.141	2.000	0.000	97.000	0.000
-15.106	12.353	0.387	3.320	0.141	2.000	0.000	98.000	0.000
-15.114	12.598	0.398	3.320	0.141	2.000	0.000	100.000	0.000
-15.121	12.793	0.422	3.320	0.141	2.000	0.000	101.000	0.000
-15.129	13.037	0.422	3.320	0.141	2.000	0.000	104.000	0.000
-15.133	13.232	0.433	3.320	0.141	2.000	0.000	105.000	0.000
-15.144	13.477	0.457	3.320	0.141	2.000	0.000	107.000	0.000
-15.148	13.672	0.469	3.320	0.141	2.000	0.000	108.000	0.000
-15.155	13.916	0.480	3.320	0.141	2.000	0.000	110.000	0.000
-15.163	14.209	0.492	3.320	0.141	2.000	0.000	112.000	0.000
-15.171	14.453	0.515	3.320	0.141	2.000	0.000	114.000	0.000
-15.178	14.746	0.515	3.320	0.141	2.000	0.000	117.000	0.000
-15.186	15.039	0.515	3.320	0.141	2.000	0.000	119.000	0.000
-15.193	15.283	0.527	3.320	0.141	2.000	0.000	120.000	0.000
-15.201	15.527	0.539	3.320	0.141	2.000	0.000	123.000	0.000
-15.205	15.723	0.562	3.320	0.141	2.000	0.000	124.000	0.000
-15.212	15.967	0.562	3.320	0.141	2.000	0.000	126.000	0.000
-15.220	16.162	0.574	3.320	0.141	2.000	0.000	129.000	0.000
-15.228	16.357	0.586	3.320	0.141	2.000	0.000	130.000	0.000
-15.235	16.602	0.597	3.320	0.141	2.000	0.000	133.000	0.000
-15.243	16.797	0.609	3.320	0.141	2.000	0.000	134.000	0.000
-15.250	16.992	0.609	3.320	0.141	2.000	0.000	137.000	0.000
-15.258	17.236	0.621	3.320	0.141	2.000	0.000	138.000	0.000
-15.266	17.480	0.633	3.320	0.141	2.000	0.000	140.000	0.000
-15.273	17.725	0.621	3.320	0.141	2.000	0.000	143.000	0.000
-15.281	17.920	0.633	3.320	0.141	2.000	0.000	144.000	0.000
-15.288	18.164	0.644	3.320	0.141	2.000	0.000	147.000	0.000
-15.292	18.359	0.656	3.320	0.141	2.000	0.000	149.000	0.000
-15.304	18.603	0.644	3.320	0.141	2.000	0.000	152.000	0.000
-15.307	18.848	0.644	3.320	0.141	2.000	0.000	153.000	0.000
-15.315	19.092	0.656	3.320	0.141	2.000	0.000	155.000	0.000
-15.323	19.385	0.656	3.320	0.141	2.000	0.000	158.000	0.000
-15.330	19.629	0.656	3.320	0.141	2.000	0.000	160.000	0.000
-15.338	19.873	0.656	3.320	0.141	2.000	0.000	163.000	0.000
-15.345	20.117	0.656	3.320	0.141	2.000	0.000	165.000	0.000
-15.353	20.312	0.656	3.320	0.141	2.000	0.000	168.000	0.000
-15.361	20.508	0.656	3.320	0.141	2.000	0.000	169.000	0.000
-15.368	20.654	0.656	3.320	0.141	2.000	0.000	170.000	0.000
-15.376	20.752	0.656	3.320	0.141	2.000	0.000	173.000	0.000
-15.380	20.850	0.668	3.320	0.141	2.000	0.000	173.000	0.000
-15.391	20.898	0.691	3.320	0.141	2.000	0.000	175.000	0.000
-15.395	20.996	0.703	3.320	0.141	2.000	0.000	176.000	0.000
-15.402	21.094	0.703	3.320	0.141	2.000	0.000	178.000	0.000
-15.410	21.191	0.703	3.320	0.141	2.000	0.000	179.000	0.000
-15.418	21.289	0.703	3.320	0.141	2.000	0.000	181.000	0.000
-15.425	21.484	0.703	3.320	0.141	2.000	0.000	182.000	0.000
-15.433	21.631	0.703	3.320	0.141	2.000	0.000	184.000	0.000
-15.440	21.875	0.691	3.320	0.141	2.000	0.000	187.000	0.000
-15.448	22.070	0.703	3.320	0.141	2.000	0.000	188.000	0.000
-15.456	22.266	0.703	3.320	0.141	2.000	0.000	191.000	0.000
-15.463	22.412	0.703	3.320	0.141	2.000	0.000	192.000	0.000
-15.471	22.559	0.703	3.320	0.141	2.000	0.000	195.000	0.000
-15.478	22.705	0.703	3.320	0.141	2.000	0.000	196.000	0.000
-15.486	22.852	0.703	3.320	0.141	2.000	0.000	197.000	0.000
-15.490	22.998	0.715	3.320	0.141	2.000	0.000	200.000	0.000
-15.501	23.096	0.715	3.320	0.141	2.000	0.000	201.000	0.000
-15.505	23.242	0.715	3.320	0.141	2.000	0.000	204.000	0.000
-15.513	23.340	0.715	3.320	0.141	2.000	0.000	204.000	0.000
-15.520	23.486	0.726	3.320	0.141	2.000	0.000	206.000	0.000
-15.528	23.633	0.726	3.320	0.141	2.000	0.000	208.000	0.000
-15.535	23.730	0.726	3.320	0.141	2.000	0.000	209.000	0.000
-15.543	23.877	0.726	3.320	0.141	2.000	0.000	210.000	0.000
-15.551	23.975	0.726	3.320	0.141	2.000	0.000	213.000	0.000
-15.558	24.072	0.738	3.320	0.141	2.000	0.000	214.000	0.000
-15.566	24.170	0.738	3.320	0.141	2.000	0.000	214.000	0.000
-15.573	24.268	0.738	3.320	0.141	2.000	0.000	217.000	0.000
-15.577	24.414	0.750	3.320	0.141	2.000	0.000	218.000	0.000
-15.589	24.512	0.738	3.320	0.141	2.000	0.000	219.000	0.000
-15.592	24.609	0.750	3.320	0.141	2.000	0.000	221.000	0.000
-15.600	24.756	0.750	3.320	0.141	2.000	0.000	222.000	0.000
-15.608	24.902	0.738	3.320	0.141	2.000	0.000	224.000	0.000
-15.615	25.049	0.738	3.320	0.141	2.000	0.000	226.000	0.000
-15.623	25.244	0.738	3.320	0.141	2.000	0.000	228.000	0.000
-15.630	25.391	0.750	3.320	0.141	2.000	0.000	229.000	0.000
-15.638	25.488	0.738	3.320	0.141	2.000	0.000	230.000	0.000
-15.646	25.635	0.750	3.320	0.141	2.000	0.000	233.000	0.000
-15.653	25.781	0.750	3.320	0.141	2.000	0.000	234.000	0.000
-15.661	25.879	0.738	3.320	0.141	2.000	0.000	235.000	0.000
-15.668	25.976	0.750	3.320	0.141	2.000	0.000	236.000	0.000
-15.676	26.074	0.738	3.320	0.141	2.000	0.000	238.000	0.000
-15.680	26.221	0.750	3.320	0.141	2.000	0.000	240.000	0.000
-15.691	26.367	0.750	3.320	0.141	2.000	0.000	241.000	0.000
-15.695	26.514	0.738	3.320	0.141	2.000	0.000	242.000	0.000
-15.703	26.660	0.750	3.320	0.141	2.000	0.000	245.000	0.000
-15.714	26.807	0.738	3.320	0.141	2.000	0.000	246.000	0.000
-15.718	27.002	0.750	3.320	0.141	2.000	0.000	248.000	0.000
-15.725	27.148	0.738	3.320	0.141	2.000	0.000	249.000	0.000
-15.733	27.246	0.750	3.320	0.141	2.000	0.000	252.000	0.000
-15.741	27.344	0.750	3.320	0.141	2.000	0.000	252.000	0.000
-15.748	27.441	0.738	3.320	0.141	2.000	0.000	253.000	0.000
-15.756	27.539	0.750	3.320	0.141	2.000	0.000	254.000	0.000
-15.764	27.637	0.738	3.320	0.141	2.000	0.000	255.000	0.000
-15.771	27.734	0.750	3.320	0.141	2.000	0.000	258.000	0.000
-15.775	27.832	0.750	3.320	0.141	2.000	0.000	258.000	0.000
-15.783	27.978	0.750	3.320	0.141	2.000	0.000	260.000	0.000
-15.790	28.174	0.750	3.320	0.141	2.000	0.000	261.000	0.000
-15.802	28.418	0.738	3.320	0.141	2.000	0.000	263.000	0.000
-15.805	28.662	0.750	3.320	0.141	2.000	0.000	267.000	0.000
-15.813	28.906	0.738	3.320	0.141	2.000	0.000	269.000	0.000
-15.821	29.101	0.738	3.320	0.141	2.000	0.000	271.000	0.000
-15.828	29.297	0.750	3.320	0.141	2.000	0.000	273.000	0.000
-15.836	29.541	0.738	3.320	0.141	2.000	0.000	277.000	0.000
-15.843	29.736	0.750	3.320	0.141	2.000	0.000	278.000	0.000
-15.851	29.932	0.750	3.320	0.141	2.000	0.000	280.000	0.000
-15.859	30.176	0.750	3.320	0.141	2.000	0.000	282.000	0.000
-15.866	30.420	0.750	3.320	0.141	2.000	0.000	284.000	0.000
-15.874	30.713	0.738	3.320	0.141	2.000	0.000	289.000	0.000
-15.878	31.006	0.750	3.320	0.141	2.000	0.000	291.000	0.000
-15.889	31.348	0.738	3.320	0.141	2.000	0.000	294.000	0.000
-15.893	31.689	0.750	3.320	0.141	2.000	0.000	297.000	0.000
-15.900	31.934	0.750	3.320	0.141	2.000	0.000	301.000	0.000
-15.908	32.178	0.750	3.320	0.141	2.000	0.000	303.000	0.000
-15.916	32.373	0.750	3.320	0.141	2.000	0.000	305.000	0.000
-15.923	32.568	0.750	3.320	0.141	2.000	0.000	307.000	0.000
-15.931	32.666	0.750	3.320	0.141	2.000	0.000	310.000	0.000
-15.938	32.812	0.750	3.320	0.141	2.000	0.000	311.000	0.000
-15.946	32.910	0.738	3.320	0.141	2.000	0.000	312.000	0.000
-15.954	33.008	0.750	3.320	0.141	2.000	0.000	313.000	0.000
-15.961	33.105	0.750	3.320	0.141	2.000	0.000	316.000	0.000
-15.969	33.252	0.750	3.320	0.141	2.000	0.000	317.000	0.000
-15.976	33.447	0.750	3.320	0.141	2.000	0.000	319.000	0.000
-15.984	33.642	0.750	3.320	0.141	2.000	0.000	323.000	0.000
-15.988	33.789	0.750	3.320	0.141	2.000	0.000	324.000	0.000
-15.999	33.984	0.750	3.320	0.141	2.000	0.000	326.000	0.000
-16.003	34.131	0.750	3.320	0.141	2.000	0.000	330.000	0.000
-16.011	34.326	0.738	3.320	0.141	2.000	0.000	331.000	0.000
-16.018	34.521	0.750	3.320	0.141	2.000	0.000	333.000	0.000
-16.026	34.717	0.750	3.320	0.141	2.000	0.000	335.000	0.000
-16.033	34.863	0.750	3.320	0.141	2.000	0.000	338.000	0.000
-16.041	35.059	0.750	3.320	0.141	2.000	0.000	340.000	0.000
-16.049	35.205	0.750	3.320	0.141	2.000	0.000	341.000	0.000
-16.056	35.400	0.750	3.320	0.141	2.000	0.000	346.000	0.000
-16.064	35.547	0.761	3.320	0.141	2.000	0.000	347.000	0.000
-16.071	35.693	0.761	3.320	0.141	2.000	0.000	348.000	0.000
-16.079	35.889	0.773	3.320	0.141	2.000	0.000	352.000	0.000
-16.087	36.035	0.785	3.320	0.141	2.000	0.000	354.000	0.000
-16.090	36.230	0.797	3.320	0.141	2.000	0.000	355.000	0.000
-16.102	36.475	0.785	3.320	0.141	2.000	0.000	360.000	0.000
-16.106	36.719	0.785	3.320	0.141	2.000	0.000	362.000	0.000
-16.113	36.963	0.785	3.320	0.141	2.000	0.000	367.000	0.000
-16.121	37.207	0.785	3.320	0.141	2.000	0.000	369.000	0.000
-16.128	37.451	0.797	3.320	0.141	2.000	0.000	372.000	0.000
-16.136	37.695	0.785	3.320	0.141	2.000	0.000	376.000	0.000
-16.144	37.988	0.785	3.320	0.141	2.000	0.000	379.000	0.000
-16.151	38.281	0.785	3.320	0.141	2.000	0.000	382.000	0.000
-16.159	38.623	0.785	3.320	0.141	2.000	0.000	387.000	0.000
-16.166	38.916	0.785	3.320	0.141	2.000	0.000	390.000	0.000
-16.174	39.258	0.773	3.320	0.141	2.000	0.000	393.000	0.000
-16.182	39.551	0.761	3.320	0.141	2.000	0.000	399.000	0.000
-16.189	39.795	0.750	3.320	0.141	2.000	0.000	401.000	0.000
-16.197	39.990	0.738	3.320	0.141	2.000	0.000	406.000	0.000
-16.201	40.088	0.750	3.320	0.141	2.000	0.000	406.000	0.000
-16.208	40.137	0.738	3.320	0.141	2.000	0.000	407.000	0.000
-16.216	40.185	0.750	3.320	0.141	2.000	0.000	407.000	0.000
-16.223	40.185	0.738	3.320	0.141	2.000	0.000	410.000	0.000
-16.231	40.185	0.738	3.320	0.141	2.000	0.000	410.000	0.000
-16.239	40.234	0.750	3.320	0.141	2.000	0.000	413.000	0.000
-16.246	40.283	0.738	3.320	0.141	2.000	0.000	414.000	0.000
-16.254	40.381	0.738	3.320	0.141	2.000	0.000	415.000	0.000
-16.261	40.478	0.738	3.320	0.141	2.000	0.000	418.000	0.000
-16.269	40.625	0.750	3.320	0.141	2.000	0.000	420.000	0.000
-16.277	40.723	0.738	3.320	0.141	2.000	0.000	421.000	0.000
-16.284	40.820	0.738	3.320	0.141	2.000	0.000	424.000	0.000
-16.292	40.869	0.738	3.320	0.141	2.000	0.000	425.000	0.000
-16.299	40.967	0.738	3.320	0.141	2.000	0.000	429.000	0.000
-16.303	41.016	0.750	3.320	0.141	2.000	0.000	429.000	0.000
-16.311	41.113	0.738	3.320	0.141	2.000	0.000	430.000	0.000
-16.318	41.260	0.738	3.320	0.141	2.000	0.000	434.000	0.000
-16.326	41.406	0.738	3.320	0.141	2.000	0.000	436.000	0.000
-16.334	41.553	0.750	3.320	0.141	2.000	0.000	437.000	0.000
-16.341	41.699	0.738	3.320	0.141	2.000	0.000	441.000	0.000
-16.349	41.797	0.738	3.320	0.141	2.000	0.000	442.000	0.000
-16.356	41.943	0.738	3.320	0.141	2.000	0.000	444.000	0.000
-16.364	41.992	0.750	3.320	0.141	2.000	0.000	447.000	0.000
-16.372	42.041	0.738	3.320	0.141	2.000	0.000	447.000	0.000
-16.379	42.139	0.750	3.320	0.141	2.000	0.000	448.000	0.000
-16.387	42.187	0.750	3.320	0.141	2.000	0.000	452.000	0.000
-16.391	42.236	0.750	3.320	0.141	2.000	0.000	452.000	0.000
-16.398	42.285	0.750	3.320	0.141	2.000	0.000	453.000	0.000
-16.410	42.383	0.738	3.320	0.141	2.000	0.000	454.000	0.000
-16.414	42.480	0.738	3.320	0.141	2.000	0.000	458.000	0.000
-16.421	42.578	0.738	3.320	0.141	2.000	0.000	458.000	0.000
-16.429	42.676	0.750	3.320	0.141	2.000	0.000	459.000	0.000
-16.436	42.773	0.738	3.320	0.141	2.000	0.000	460.000	0.000
-16.444	42.871	0.738	3.320	0.141	2.000	0.000	464.000	0.000
-16.452	42.969	0.738	3.320	0.141	2.000	0.000	465.000	0.000
-16.459	43.017	0.750	3.320	0.141	2.000	0.000	466.000	0.000
-16.467	43.164	0.750	3.320	0.141	2.000	0.000	467.000	0.000
-16.474	43.310	0.738	3.320	0.141	2.000	0.000	472.000	0.000
-16.478	43.457	0.750	3.320	0.141	2.000	0.000	473.000	0.000
-16.490	43.603	0.750	3.320	0.141	2.000	0.000	475.000	0.000
-16.497	43.799	0.750	3.320	0.141	2.000	0.000	477.000	0.000
-16.501	43.994	0.750	3.320	0.141	2.000	0.000	479.000	0.000
-16.512	44.141	0.750	3.320	0.141	2.000	0.000	483.000	0.000
-16.516	44.287	0.750	3.320	0.141	2.000	0.000	485.000	0.000
-16.524	44.336	0.750	3.320	0.141	2.000	0.000	485.000	0.000
-16.531	44.336	0.738	3.320	0.141	2.000	0.000	485.000	0.000
-16.539	44.287	0.738	3.320	0.141	2.000	0.000	485.000	0.000
-16.547	44.141	0.738	3.320	0.141	2.000	0.000	486.000	0.000
-16.554	43.896	0.750	3.320	0.141	2.000	0.000	483.000	0.000
-16.562	43.603	0.750	3.320	0.141	2.000	0.000	480.000	0.000
-16.569	43.262	0.750	3.320	0.141	2.000	0.000	477.000	0.000
-16.577	42.969	0.750	3.320	0.141	2.000	0.000	474.000	0.000
-16.585	42.724	0.750	3.320	0.141	2.000	0.000	471.000	0.000
-16.592	42.578	0.750	3.320	0.141	2.000	0.000	473.000	0.000
-16.600	42.529	0.750	3.320	0.141	2.000	0.000	472.000	0.000
-16.604	42.578	0.750	3.320	0.141	2.000	0.000	473.000	0.000
-16.611	42.676	0.750	3.320	0.141	2.000	0.000	474.000	0.000
-16.619	42.871	0.750	3.320	0.141	2.000	0.000	476.000	0.000
-16.626	43.164	0.750	3.320	0.141	2.000	0.000	479.000	0.000
-16.634	43.457	0.750	3.320	0.141	2.000	0.000	482.000	0.000
-16.642	43.799	0.750	3.320	0.141	2.000	0.000	485.000	0.000
-16.649	44.141	0.738	3.320	0.141	2.000	0.000	489.000	0.000
-16.657	44.433	0.750	3.320	0.141	2.000	0.000	492.000	0.000
-16.664	44.726	0.750	3.320	0.141	2.000	0.000	498.000	0.000
-16.672	44.971	0.750	3.320	0.141	2.000	0.000	501.000	0.000
-16.680	45.166	0.750	3.320	0.141	2.000	0.000	503.000	0.000
-16.687	45.312	0.738	3.320	0.141	2.000	0.000	504.000	0.000
-16.695	45.410	0.750	3.320	0.141	2.000	0.000	505.000	0.000
-16.702	45.410	0.738	3.320	0.141	2.000	0.000	505.000	0.000
-16.706	45.361	0.738	3.320	0.141	2.000	0.000	505.000	0.000
-16.714	45.215	0.738	3.320	0.141	2.000	0.000	503.000	0.000
-16.721	45.019	0.738	3.320	0.141	2.000	0.000	501.000	0.000
-16.729	44.775	0.738	3.320	0.141	2.000	0.000	498.000	0.000
-16.737	44.433	0.738	3.320	0.141	2.000	0.000	495.000	0.000
-16.744	44.092	0.738	3.320	0.141	2.000	0.000	494.000	0.000
-16.752	43.750	0.738	3.320	0.141	2.000	0.000	491.000	0.000
-16.759	43.457	0.738	3.320	0.141	2.000	0.000	488.000	0.000
-16.767	43.213	0.750	3.320	0.141	2.000	0.000	485.000	0.000
-16.775	43.066	0.738	3.320	0.141	2.000	0.000	484.000	0.000
-16.782	43.017	0.738	3.320	0.141	2.000	0.000	483.000	0.000
-16.790	43.066	0.738	3.320	0.141	2.000	0.000	484.000	0.000
-16.797	43.213	0.738	3.320	0.141	2.000	0.000	485.000	0.000
-16.801	43.457	0.738	3.320	0.141	2.000	0.000	488.000	0.000
-16.813	43.750	0.726	3.320	0.141	2.000	0.000	491.000	0.000
-16.816	44.092	0.726	3.320	0.141	2.000	0.000	494.000	0.000
-16.824	44.433	0.715	3.320	0.141	2.000	0.000	498.000	0.000
-16.832	44.824	0.703	3.320	0.141	2.000	0.000	502.000	0.000
-16.839	45.215	0.715	3.320	0.141	2.000	0.000	506.000	0.000
-16.847	45.557	0.691	3.320	0.141	2.000	0.000	510.000	0.000
-16.854	45.898	0.703	3.320	0.141	2.000	0.000	513.000	0.000
-16.862	46.191	0.691	3.320	0.141	2.000	0.000	516.000	0.000
-16.870	46.484	0.703	3.320	0.141	2.000	0.000	519.000	0.000
-16.877	46.777	0.691	3.320	0.141	2.000	0.000	522.000	0.000
-16.885	47.021	0.691	3.320	0.141	2.000	0.000	525.000	0.000
-16.892	47.266	0.691	3.320	0.141	2.000	0.000	531.000	0.000
-16.900	47.461	0.691	3.320	0.141	2.000	0.000	533.000	0.000
-16.908	47.607	0.703	3.320	0.141	2.000	0.000	534.000	0.000
-16.915	47.656	0.691	3.320	0.141	2.000	0.000	535.000	0.000
-16.919	47.607	0.691	3.320	0.141	2.000	0.000	534.000	0.000
-16.927	47.412	0.703	3.320	0.141	2.000	0.000	532.000	0.000
-16.934	47.168	0.691	3.320	0.141	2.000	0.000	530.000	0.000
-16.942	46.826	0.691	3.320	0.141	2.000	0.000	526.000	0.000
-16.949	46.435	0.679	3.320	0.141	2.000	0.000	522.000	0.000
-16.957	46.094	0.668	3.320	0.141	2.000	0.000	518.000	0.000
-16.965	45.752	0.668	3.320	0.141	2.000	0.000	515.000	0.000
-16.972	45.459	0.656	3.320	0.141	2.000	0.000	512.000	0.000
-16.980	45.264	0.656	3.320	0.141	2.000	0.000	510.000	0.000
-16.987	45.215	0.644	3.320	0.141	2.000	0.000	509.000	0.000
-16.995	45.215	0.656	3.320	0.141	2.000	0.000	512.000	0.000
-17.003	45.312	0.644	3.320	0.141	2.000	0.000	513.000	0.000
-17.010	45.459	0.656	3.320	0.141	2.000	0.000	515.000	0.000
-17.014	45.605	0.656	3.320	0.141	2.000	0.000	516.000	0.000
-17.025	45.801	0.656	3.320	0.141	2.000	0.000	518.000	0.000
-17.029	45.947	0.644	3.320	0.141	2.000	0.000	520.000	0.000
-17.041	46.094	0.644	3.320	0.141	2.000	0.000	521.000	0.000
-17.045	46.142	0.656	3.320	0.141	2.000	0.000	522.000	0.000
-17.052	46.142	0.656	3.320	0.141	2.000	0.000	522.000	0.000
-17.060	46.045	0.656	3.320	0.141	2.000	0.000	524.000	0.000
-17.067	45.947	0.656	3.320	0.141	2.000	0.000	523.000	0.000
-17.075	45.801	0.644	3.320	0.141	2.000	0.000	521.000	0.000
-17.083	45.605	0.656	3.320	0.141	2.000	0.000	519.000	0.000
-17.090	45.459	0.656	3.320	0.141	2.000	0.000	518.000	0.000
-17.098	45.312	0.656	3.320	0.141	2.000	0.000	516.000	0.000
-17.102	45.166	0.668	3.320	0.141	2.000	0.000	515.000	0.000
-17.113	45.117	0.668	3.320	0.141	2.000	0.000	514.000	0.000
-17.117	45.117	0.679	3.320	0.141	2.000	0.000	514.000	0.000
-17.128	45.117	0.679	3.320	0.141	2.000	0.000	514.000	0.000
-17.132	45.215	0.679	3.320	0.141	2.000	0.000	515.000	0.000
-17.140	45.264	0.691	3.320	0.141	2.000	0.000	519.000	0.000
-17.147	45.264	0.679	3.320	0.141	2.000	0.000	519.000	0.000
-17.155	45.264	0.691	3.320	0.141	2.000	0.000	519.000	0.000
-17.162	45.068	0.679	3.320	0.141	2.000	0.000	517.000	0.000
-17.170	44.775	0.668	3.320	0.141	2.000	0.000	514.000	0.000
-17.178	44.336	0.656	3.320	0.141	2.000	0.000	509.000	0.000
-17.185	43.799	0.656	3.320	0.141	2.000	0.000	503.000	0.000
-17.193	43.164	0.656	3.320	0.141	2.000	0.000	497.000	0.000
-17.200	42.578	0.656	3.320	0.141	2.000	0.000	490.000	0.000
-17.208	42.041	0.656	3.320	0.141	2.000	0.000	484.000	0.000
-17.216	41.650	0.644	3.320	0.141	2.000	0.000	480.000	0.000
-17.219	41.357	0.656	3.320	0.141	2.000	0.000	477.000	0.000
-17.227	41.211	0.656	3.320	0.141	2.000	0.000	475.000	0.000
-17.235	41.211	0.656	3.320	0.141	2.000	0.000	475.000	0.000
-17.242	41.357	0.656	3.320	0.141	2.000	0.000	474.000	0.000
-17.254	41.601	0.656	3.320	0.141	2.000	0.000	477.000	0.000
-17.257	41.992	0.656	3.320	0.141	2.000	0.000	481.000	0.000
-17.265	42.383	0.656	3.320	0.141	2.000	0.000	485.000	0.000
-17.273	42.822	0.656	3.320	0.141	2.000	0.000	490.000	0.000
-17.280	43.262	0.656	3.320	0.141	2.000	0.000	494.000	0.000
-17.288	43.701	0.656	3.320	0.141	2.000	0.000	499.000	0.000
-17.295	44.092	0.656	3.320	0.141	2.000	0.000	503.000	0.000
-17.303	44.433	0.656	3.320	0.141	2.000	0.000	504.000	0.000
-17.311	44.726	0.656	3.320	0.141	2.000	0.000	507.000	0.000
-17.318	44.873	0.656	3.320	0.141	2.000	0.000	509.000	0.000
-17.326	44.971	0.656	3.320	0.141	2.000	0.000	510.000	0.000
-17.333	45.019	0.644	3.320	0.141	2.000	0.000	510.000	0.000
-17.341	44.922	0.644	3.320	0.141	2.000	0.000	506.000	0.000
-17.345	44.775	0.644	3.320	0.141	2.000	0.000	505.000	0.000
-17.352	44.580	0.644	3.320	0.141	2.000	0.000	502.000	0.000
-17.360	44.336	0.656	3.320	0.141	2.000	0.000	500.000	0.000
-17.368	44.092	0.644	3.320	0.141	2.000	0.000	497.000	0.000
-17.375	43.848	0.644	3.320	0.141	2.000	0.000	495.000	0.000
-17.383	43.652	0.644	3.320	0.141	2.000	0.000	493.000	0.000
-17.390	43.506	0.644	3.320	0.141	2.000	0.000	491.000	0.000
-17.398	43.457	0.656	3.320	0.141	2.000	0.000	488.000	0.000
-17.406	43.359	0.644	3.320	0.141	2.000	0.000	487.000	0.000
-17.413	43.310	0.644	3.320	0.141	2.000	0.000	486.000	0.000
-17.417	43.310	0.644	3.320	0.141	2.000	0.000	486.000	0.000
-17.428	43.262	0.644	3.320	0.141	2.000	0.000	486.000	0.000
-17.432	43.213	0.656	3.320	0.141	2.000	0.000	485.000	0.000
-17.440	43.164	0.644	3.320	0.141	2.000	0.000	485.000	0.000
-17.447	43.115	0.656	3.320	0.141	2.000	0.000	484.000	0.000
-17.455	43.115	0.644	3.320	0.141	2.000	0.000	481.000	0.000
-17.463	43.066	0.644	3.320	0.141	2.000	0.000	481.000	0.000
-17.470	43.017	0.656	3.320	0.141	2.000	0.000	480.000	0.000
-17.478	42.969	0.644	3.320	0.141	2.000	0.000	480.000	0.000
-17.485	42.822	0.644	3.320	0.141	2.000	0.000	478.000	0.000
-17.493	42.627	0.644	3.320	0.141	2.000	0.000	476.000	0.000
-17.501	42.383	0.644	3.320	0.141	2.000	0.000	474.000	0.000
-17.508	42.041	0.656	3.320	0.141	2.000	0.000	470.000	0.000
-17.516	41.699	0.644	3.320	0.141	2.000	0.000	467.000	0.000
-17.523	41.260	0.644	3.320	0.141	2.000	0.000	462.000	0.000
-17.531	40.820	0.644	3.320	0.141	2.000	0.000	457.000	0.000
-17.539	40.430	0.633	3.320	0.141	2.000	0.000	453.000	0.000
-17.542	40.039	0.633	3.320	0.141	2.000	0.000	449.000	0.000
-17.550	39.697	0.633	3.320	0.141	2.000	0.000	446.000	0.000
-17.558	39.404	0.621	3.320	0.141	2.000	0.000	443.000	0.000
-17.565	39.258	0.621	3.320	0.141	2.000	0.000	441.000	0.000
-17.573	39.160	0.609	3.320	0.141	2.000	0.000	438.000	0.000
-17.580	39.111	0.609	3.320	0.141	2.000	0.000	437.000	0.000
-17.588	39.160	0.609	3.320	0.141	2.000	0.000	438.000	0.000
-17.596	39.258	0.609	3.320	0.141	2.000	0.000	439.000	0.000
-17.603	39.453	0.597	3.320	0.141	2.000	0.000	441.000	0.000
-17.611	39.697	0.609	3.320	0.141	2.000	0.000	443.000	0.000
-17.618	39.941	0.609	3.320	0.141	2.000	0.000	446.000	0.000
-17.626	40.185	0.597	3.320	0.141	2.000	0.000	448.000	0.000
-17.634	40.430	0.609	3.320	0.141	2.000	0.000	451.000	0.000
-17.641	40.625	0.597	3.320	0.141	2.000	0.000	453.000	0.000
-17.645	40.820	0.609	3.320	0.141	2.000	0.000	454.000	0.000
-17.656	40.869	0.597	3.320	0.141	2.000	0.000	452.000	0.000
-17.660	40.967	0.597	3.320	0.141	2.000	0.000	453.000	0.000
-17.668	40.918	0.597	3.320	0.141	2.000	0.000	453.000	0.000
-17.676	40.869	0.597	3.320	0.141	2.000	0.000	452.000	0.000
-17.683	40.771	0.597	3.320	0.141	2.000	0.000	451.000	0.000
-17.691	40.674	0.597	3.320	0.141	2.000	0.000	450.000	0.000
-17.698	40.576	0.597	3.320	0.141	2.000	0.000	449.000	0.000
-17.706	40.478	0.597	3.320	0.141	2.000	0.000	446.000	0.000
-17.714	40.381	0.597	3.320	0.141	2.000	0.000	445.000	0.000
-17.721	40.332	0.597	3.320	0.141	2.000	0.000	444.000	0.000
-17.729	40.283	0.586	3.320	0.141	2.000	0.000	444.000	0.000
-17.736	40.185	0.574	3.320	0.141	2.000	0.000	443.000	0.000
-17.744	39.990	0.562	3.320	0.141	2.000	0.000	441.000	0.000
-17.752	39.844	0.562	3.320	0.141	2.000	0.000	437.000	0.000
-17.755	39.648	0.551	3.320	0.141	2.000	0.000	435.000	0.000
-17.763	39.453	0.551	3.320	0.141	2.000	0.000	433.000	0.000
-17.771	39.258	0.562	3.320	0.141	2.000	0.000	431.000	0.000
-17.778	39.111	0.551	3.320	0.141	2.000	0.000	429.000	0.000
-17.786	38.965	0.551	3.320	0.141	2.000	0.000	428.000	0.000
-17.793	38.818	0.551	3.320	0.141	2.000	0.000	426.000	0.000
-17.801	38.672	0.551	3.320	0.141	2.000	0.000	425.000	0.000
-17.809	38.525	0.551	3.320	0.141	2.000	0.000	421.000	0.000
-17.816	38.428	0.551	3.320	0.141	2.000	0.000	420.000	0.000
-17.824	38.232	0.551	3.320	0.141	2.000	0.000	418.000	0.000
-17.831	38.135	0.551	3.320	0.141	2.000	0.000	417.000	0.000
-17.839	37.988	0.539	3.320	0.141	2.000	0.000	415.000	0.000
-17.847	37.891	0.551	3.320	0.141	2.000	0.000	414.000	0.000
-17.854	37.842	0.539	3.320	0.141	2.000	0.000	414.000	0.000
-17.858	37.891	0.539	3.320	0.141	2.000	0.000	412.000	0.000
-17.869	37.939	0.527	3.320	0.141	2.000	0.000	412.000	0.000
-17.873	38.037	0.515	3.320	0.141	2.000	0.000	413.000	0.000
-17.881	38.183	0.504	3.320	0.141	2.000	0.000	415.000	0.000
-17.888	38.330	0.504	3.320	0.141	2.000	0.000	416.000	0.000
-17.896	38.476	0.504	3.320	0.141	2.000	0.000	417.000	0.000
-17.904	38.525	0.515	3.320	0.141	2.000	0.000	418.000	0.000
-17.911	38.574	0.504	3.320	0.141	2.000	0.000	418.000	0.000
-17.919	38.574	0.504	3.320	0.141	2.000	0.000	416.000	0.000
-17.926	38.525	0.515	3.320	0.141	2.000	0.000	415.000	0.000
-17.934	38.476	0.515	3.320	0.141	2.000	0.000	415.000	0.000
-17.942	38.379	0.504	3.320	0.141	2.000	0.000	414.000	0.000
-17.949	38.232	0.504	3.320	0.141	2.000	0.000	412.000	0.000
-17.957	38.135	0.504	3.320	0.141	2.000	0.000	411.000	0.000
-17.964	37.988	0.504	3.320	0.141	2.000	0.000	410.000	0.000
-17.972	37.891	0.504	3.320	0.141	2.000	0.000	409.000	0.000
-17.980	37.793	0.504	3.320	0.141	2.000	0.000	408.000	0.000
-17.983	37.744	0.504	3.320	0.141	2.000	0.000	408.000	0.000
-17.995	37.695	0.480	3.320	0.141	2.000	0.000	405.000	0.000
-17.999	37.695	0.469	3.320	0.141	2.000	0.000	405.000	0.000
-18.006	37.695	0.457	3.320	0.141	2.000	0.000	404.000	0.000
-18.014	37.646	0.457	3.320	0.141	2.000	0.000	404.000	0.000
-18.021	37.646	0.457	3.320	0.141	2.000	0.000	404.000	0.000
-18.029	37.646	0.457	3.320	0.141	2.000	0.000	404.000	0.000
-18.037	37.549	0.457	3.320	0.141	2.000	0.000	403.000	0.000
-18.044	37.402	0.457	3.320	0.141	2.000	0.000	402.000	0.000
-18.052	37.207	0.433	3.320	0.141	2.000	0.000	400.000	0.000
-18.059	36.963	0.422	3.320	0.141	2.000	0.000	397.000	0.000
-18.067	36.767	0.410	3.320	0.141	2.000	0.000	395.000	0.000
-18.075	36.523	0.410	3.320	0.141	2.000	0.000	390.000	0.000
-18.082	36.279	0.398	3.320	0.141	2.000	0.000	388.000	0.000
-18.090	36.035	0.398	3.320	0.141	2.000	0.000	386.000	0.000
-18.097	35.840	0.387	3.320	0.141	2.000	0.000	384.000	0.000
-18.101	35.644	0.375	3.320	0.141	2.000	0.000	382.000	0.000
-18.109	35.449	0.375	3.320	0.141	2.000	0.000	380.000	0.000
-18.116	35.303	0.375	3.320	0.141	2.000	0.000	378.000	0.000
-18.124	35.205	0.375	3.320	0.141	2.000	0.000	378.000	0.000
-18.132	35.107	0.363	3.320	0.141	2.000	0.000	377.000	0.000
-18.139	35.059	0.363	3.320	0.141	2.000	0.000	376.000	0.000
-18.147	34.961	0.363	3.320	0.141	2.000	0.000	373.000	0.000
-18.154	34.912	0.363	3.320	0.141	2.000	0.000	372.000	0.000
-18.162	34.863	0.363	3.320	0.141	2.000	0.000	372.000	0.000
-18.170	34.814	0.363	3.320	0.141	2.000	0.000	371.000	0.000
-18.177	34.717	0.363	3.320	0.141	2.000	0.000	370.000	0.000
-18.185	34.619	0.363	3.320	0.141	2.000	0.000	369.000	0.000
-18.192	34.521	0.351	3.320	0.141	2.000	0.000	368.000	0.000
-18.200	34.326	0.351	3.320	0.141	2.000	0.000	367.000	0.000
-18.208	34.180	0.340	3.320	0.141	2.000	0.000	365.000	0.000
-18.215	34.033	0.328	3.320	0.141	2.000	0.000	361.000	0.000
-18.223	33.838	0.316	3.320	0.141	2.000	0.000	359.000	0.000
-18.227	33.691	0.328	3.320	0.141	2.000	0.000	358.000	0.000
-18.234	33.594	0.316	3.320	0.141	2.000	0.000	357.000	0.000
-18.242	33.496	0.316	3.320	0.141	2.000	0.000	356.000	0.000
-18.249	33.398	0.316	3.320	0.141	2.000	0.000	355.000	0.000
-18.257	33.350	0.305	3.320	0.141	2.000	0.000	352.000	0.000
-18.265	33.252	0.293	3.320	0.141	2.000	0.000	352.000	0.000
-18.272	33.154	0.281	3.320	0.141	2.000	0.000	351.000	0.000
-18.280	33.057	0.269	3.320	0.141	2.000	0.000	350.000	0.000
-18.287	32.910	0.269	3.320	0.141	2.000	0.000	348.000	0.000
-18.295	32.764	0.281	3.320	0.141	2.000	0.000	345.000	0.000
-18.303	32.617	0.269	3.320	0.141	2.000	0.000	343.000	0.000
-18.310	32.422	0.269	3.320	0.141	2.000	0.000	341.000	0.000
-18.318	32.178	0.269	3.320	0.141	2.000	0.000	339.000	0.000
-18.326	31.934	0.258	3.320	0.141	2.000	0.000	337.000	0.000
-18.329	31.641	0.234	3.320	0.141	2.000	0.000	334.000	0.000
-18.341	31.348	0.223	3.320	0.141	2.000	0.000	329.000	0.000
-18.345	31.055	0.234	3.320	0.141	2.000	0.000	326.000	0.000
-18.352	30.810	0.234	3.320	0.141	2.000	0.000	324.000	0.000
-18.360	30.566	0.223	3.320	0.141	2.000	0.000	321.000	0.000
-18.367	30.371	0.234	3.320	0.141	2.000	0.000	317.000	0.000
-18.375	30.225	0.223	3.320	0.141	2.000	0.000	316.000	0.000
-18.383	30.127	0.234	3.320	0.141	2.000	0.000	315.000	0.000
-18.390	30.078	0.223	3.320	0.141	2.000	0.000	315.000	0.000
-18.398	30.078	0.223	3.320	0.141	2.000	0.000	313.000	0.000
-18.405	30.078	0.234	3.320	0.141	2.000	0.000	313.000	0.000
-18.413	30.078	0.223	3.320	0.141	2.000	0.000	313.000	0.000
-18.421	30.078	0.223	3.320	0.141	2.000	0.000	313.000	0.000
-18.428	30.127	0.223	3.320	0.141	2.000	0.000	311.000	0.000
-18.436	30.225	0.223	3.320	0.141	2.000	0.000	312.000	0.000
-18.443	30.273	0.211	3.320	0.141	2.000	0.000	312.000	0.000
-18.447	30.273	0.199	3.320	0.141	2.000	0.000	312.000	0.000
-18.455	30.225	0.199	3.320	0.141	2.000	0.000	310.000	0.000
-18.462	30.225	0.199	3.320	0.141	2.000	0.000	310.000	0.000
-18.470	30.225	0.199	3.320	0.141	2.000	0.000	310.000	0.000
-18.478	30.225	0.187	3.320	0.141	2.000	0.000	308.000	0.000
-18.485	30.225	0.187	3.320	0.141	2.000	0.000	308.000	0.000
-18.493	30.225	0.187	3.320	0.141	2.000	0.000	308.000	0.000
-18.500	30.176	0.187	3.320	0.141	2.000	0.000	307.000	0.000
-18.508	30.078	0.187	3.320	0.141	2.000	0.000	306.000	0.000
-18.516	29.932	0.176	3.320	0.141	2.000	0.000	303.000	0.000
-18.523	29.736	0.187	3.320	0.141	2.000	0.000	301.000	0.000
-18.531	29.492	0.176	3.320	0.141	2.000	0.000	299.000	0.000
-18.538	29.199	0.176	3.320	0.141	2.000	0.000	294.000	0.000
-18.542	28.906	0.187	3.320	0.141	2.000	0.000	292.000	0.000
-18.554	28.564	0.187	3.320	0.141	2.000	0.000	288.000	0.000
-18.557	28.271	0.187	3.320	0.141	2.000	0.000	286.000	0.000
-18.565	28.027	0.187	3.320	0.141	2.000	0.000	284.000	0.000
-18.573	27.783	0.176	3.320	0.141	2.000	0.000	279.000	0.000
-18.580	27.637	0.187	3.320	0.141	2.000	0.000	278.000	0.000
-18.588	27.490	0.187	3.320	0.141	2.000	0.000	277.000	0.000
-18.595	27.344	0.176	3.320	0.141	2.000	0.000	275.000	0.000
-18.603	27.246	0.176	3.320	0.141	2.000	0.000	275.000	0.000
-18.611	27.197	0.176	3.320	0.141	2.000	0.000	272.000	0.000
-18.618	27.100	0.176	3.320	0.141	2.000	0.000	271.000	0.000
-18.626	27.051	0.176	3.320	0.141	2.000	0.000	271.000	0.000
-18.633	27.002	0.187	3.320	0.141	2.000	0.000	271.000	0.000
-18.641	26.953	0.187	3.320	0.141	2.000	0.000	270.000	0.000
-18.645	26.904	0.187	3.320	0.141	2.000	0.000	268.000	0.000
-18.656	26.855	0.187	3.320	0.141	2.000	0.000	267.000	0.000
-18.660	26.807	0.176	3.320	0.141	2.000	0.000	267.000	0.000
-18.668	26.709	0.176	3.320	0.141	2.000	0.000	266.000	0.000
-18.675	26.660	0.187	3.320	0.141	2.000	0.000	266.000	0.000
-18.683	26.562	0.176	3.320	0.141	2.000	0.000	263.000	0.000
-18.690	26.465	0.176	3.320	0.141	2.000	0.000	262.000	0.000
-18.698	26.367	0.176	3.320	0.141	2.000	0.000	261.000	0.000
-18.706	26.221	0.176	3.320	0.141	2.000	0.000	260.000	0.000
-18.713	26.025	0.176	3.320	0.141	2.000	0.000	258.000	0.000
-18.721	25.781	0.176	3.320	0.141	2.000	0.000	254.000	0.000
-18.728	25.537	0.176	3.320	0.141	2.000	0.000	252.000	0.000
-18.736	25.195	0.176	3.320	0.141	2.000	0.000	249.000	0.000
-18.744	24.853	0.164	3.320	0.141	2.000	0.000	246.000	0.000
-18.751	24.463	0.152	3.320	0.141	2.000	0.000	243.000	0.000
-18.759	24.072	0.152	3.320	0.141	2.000	0.000	237.000	0.000
-18.763	23.682	0.141	3.320	0.141	2.000	0.000	234.000	0.000
-18.770	23.291	0.141	3.320	0.141	2.000	0.000	231.000	0.000
-18.778	22.900	0.129	3.320	0.141	2.000	0.000	227.000	0.000
-18.785	22.510	0.129	3.320	0.141	2.000	0.000	224.000	0.000
-18.793	22.168	0.129	3.320	0.141	2.000	0.000	219.000	0.000
-18.801	21.875	0.141	3.320	0.141	2.000	0.000	217.000	0.000
-18.808	21.631	0.141	3.320	0.141	2.000	0.000	215.000	0.000
-18.816	21.435	0.129	3.320	0.141	2.000	0.000	213.000	0.000
-18.823	21.240	0.129	3.320	0.141	2.000	0.000	211.000	0.000
-18.831	21.191	0.141	3.320	0.141	2.000	0.000	209.000	0.000
-18.839	21.094	0.129	3.320	0.141	2.000	0.000	209.000	0.000
-18.846	21.045	0.129	3.320	0.141	2.000	0.000	208.000	0.000
-18.854	21.045	0.129	3.320	0.141	2.000	0.000	207.000	0.000
-18.861	21.045	0.129	3.320	0.141	2.000	0.000	207.000	0.000
-18.865	21.045	0.129	3.320	0.141	2.000	0.000	207.000	0.000
-18.873	21.045	0.129	3.320	0.141	2.000	0.000	207.000	0.000
-18.880	20.996	0.129	3.320	0.141	2.000	0.000	205.000	0.000
-18.888	20.898	0.129	3.320	0.141	2.000	0.000	204.000	0.000
-18.896	20.801	0.129	3.320	0.141	2.000	0.000	203.000	0.000
-18.903	20.654	0.129	3.320	0.141	2.000	0.000	200.000	0.000
-18.911	20.459	0.129	3.320	0.141	2.000	0.000	199.000	0.000
-18.918	20.264	0.129	3.320	0.141	2.000	0.000	197.000	0.000
-18.926	20.117	0.129	3.320	0.141	2.000	0.000	194.000	0.000
-18.934	19.922	0.129	3.320	0.141	2.000	0.000	193.000	0.000
-18.941	19.727	0.129	3.320	0.141	2.000	0.000	191.000	0.000
-18.949	19.531	0.129	3.320	0.141	2.000	0.000	188.000	0.000
-18.956	19.336	0.129	3.320	0.141	2.000	0.000	186.000	0.000
-18.964	19.092	0.129	3.320	0.141	2.000	0.000	184.000	0.000
-18.972	18.848	0.129	3.320	0.141	2.000	0.000	181.000	0.000
-18.976	18.506	0.129	3.320	0.141	2.000	0.000	178.000	0.000
-18.987	18.164	0.129	3.320	0.141	2.000	0.000	175.000	0.000
-18.991	17.725	0.117	3.320	0.141	2.000	0.000	170.000	0.000
-18.998	17.334	0.105	3.320	0.141	2.000	0.000	167.000	0.000
-19.006	16.894	0.094	3.320	0.141	2.000	0.000	162.000	0.000
-19.014	16.455	0.082	3.320	0.141	2.000	0.000	159.000	0.000
-19.021	16.016	0.082	3.320	0.141	2.000	0.000	155.000	0.000
-19.029	15.625	0.082	3.320	0.141	2.000	0.000	151.000	0.000
-19.036	15.332	0.082	3.320	0.141	2.000	0.000	149.000	0.000
-19.044	15.039	0.094	3.320	0.141	2.000	0.000	146.000	0.000
-19.052	14.795	0.082	3.320	0.141	2.000	0.000	143.000	0.000
-19.059	14.551	0.082	3.320	0.141	2.000	0.000	141.000	0.000
-19.067	14.355	0.094	3.320	0.141	2.000	0.000	139.000	0.000
-19.074	14.160	0.082	3.320	0.141	2.000	0.000	137.000	0.000
-19.078	13.965	0.094	3.320	0.141	2.000	0.000	136.000	0.000
-19.090	13.818	0.094	3.320	0.141	2.000	0.000	133.000	0.000
-19.093	13.623	0.094	3.320	0.141	2.000	0.000	132.000	0.000
-19.101	13.428	0.094	3.320	0.141	2.000	0.000	130.000	0.000
-19.109	13.232	0.094	3.320	0.141	2.000	0.000	128.000	0.000
-19.116	13.037	0.094	3.320	0.141	2.000	0.000	126.000	0.000
-19.124	12.842	0.082	3.320	0.141	2.000	0.000	124.000	0.000
-19.131	12.646	0.082	3.320	0.141	2.000	0.000	122.000	0.000
-19.139	12.353	0.094	3.320	0.141	2.000	0.000	120.000	0.000
-19.147	12.109	0.082	3.320	0.141	2.000	0.000	117.000	0.000
-19.154	11.768	0.082	3.320	0.141	2.000	0.000	115.000	0.000
-19.162	11.426	0.082	3.320	0.141	2.000	0.000	111.000	0.000
-19.169	11.084	0.082	3.320	0.141	2.000	0.000	108.000	0.000
-19.177	10.693	0.094	3.320	0.141	2.000	0.000	105.000	0.000
-19.181	10.303	0.082	3.320	0.141	2.000	0.000	102.000	0.000
-19.188	9.912	0.082	3.320	0.141	2.000	0.000	99.000	0.000
-19.196	9.570	0.082	3.320	0.141	2.000	0.000	95.000	0.000
-19.204	9.228	0.082	3.320	0.141	2.000	0.000	93.000	0.000
-19.211	8.887	0.082	3.320	0.141	2.000	0.000	90.000	0.000
-19.219	8.643	0.082	3.320	0.141	2.000	0.000	88.000	0.000
-19.226	8.398	0.082	3.320	0.141	2.000	0.000	85.000	0.000
-19.234	8.203	0.082	3.320	0.141	2.000	0.000	84.000	0.000
-19.242	8.008	0.082	3.320	0.141	2.000	0.000	82.000	0.000
-19.249	7.812	0.082	3.320	0.141	2.000	0.000	80.000	0.000
-19.257	7.617	0.082	3.320	0.141	2.000	0.000	78.000	0.000
-19.264	7.422	0.082	3.320	0.141	2.000	0.000	77.000	0.000
-19.272	7.227	0.082	3.320	0.141	2.000	0.000	75.000	0.000
-19.280	7.031	0.094	3.320	0.141	2.000	0.000	73.000	0.000
-19.283	6.836	0.082	3.320	0.141	2.000	0.000	71.000	0.000
-19.295	6.641	0.082	3.320	0.141	2.000	0.000	70.000	0.000
-19.299	6.445	0.082	3.320	0.141	2.000	0.000	68.000	0.000
-19.306	6.299	0.082	3.320	0.141	2.000	0.000	67.000	0.000
-19.314	6.103	0.082	3.320	0.141	2.000	0.000	65.000	0.000
-19.321	5.908	0.082	3.320	0.141	2.000	0.000	64.000	0.000
-19.329	5.713	0.082	3.320	0.141	2.000	0.000	62.000	0.000
-19.337	5.518	0.070	3.320	0.141	2.000	0.000	60.000	0.000
-19.344	5.273	0.070	3.320	0.141	2.000	0.000	58.000	0.000
-19.352	5.078	0.059	3.320	0.141	2.000	0.000	57.000	0.000
-19.359	4.834	0.047	3.320	0.141	2.000	0.000	55.000	0.000
-19.367	4.687	0.047	3.320	0.141	2.000	0.000	54.000	0.000
-19.375	4.541	0.047	3.320	0.141	2.000	0.000	52.000	0.000
-19.382	4.395	0.047	3.320	0.141	2.000	0.000	51.000	0.000
-19.390	4.346	0.047	3.320	0.141	2.000	0.000	50.000	0.000
-19.397	4.248	0.035	3.320	0.141	2.000	0.000	50.000	0.000
-19.401	4.248	0.035	3.320	0.141	2.000	0.000	49.000	0.000
-19.409	4.199	0.035	3.320	0.141	2.000	0.000	49.000	0.000
-19.416	4.150	0.047	3.320	0.141	2.000	0.000	48.000	0.000
-19.424	4.102	0.035	3.320	0.141	2.000	0.000	48.000	0.000
-19.432	4.004	0.035	3.320	0.141	2.000	0.000	47.000	0.000
-19.439	3.906	0.035	3.320	0.141	2.000	0.000	46.000	0.000
-19.447	3.809	0.035	3.320	0.141	2.000	0.000	45.000	0.000
-19.454	3.711	0.047	3.320	0.141	2.000	0.000	44.000	0.000
-19.462	3.613	0.047	3.320	0.141	2.000	0.000	44.000	0.000
-19.470	3.516	0.047	3.320	0.141	2.000	0.000	43.000	0.000
-19.477	3.467	0.035	3.320	0.141	2.000	0.000	42.000	0.000
-19.485	3.369	0.047	3.320	0.141	2.000	0.000	41.000	0.000
-19.492	3.271	0.035	3.320	0.141	2.000	0.000	41.000	0.000
-19.500	3.174	0.035	3.320	0.141	2.000	0.000	40.000	0.000
-19.504	3.076	0.035	3.320	0.141	2.000	0.000	39.000	0.000
-19.511	2.930	0.035	3.320	0.141	2.000	0.000	38.000	0.000
-19.519	2.734	0.047	3.320	0.141	2.000	0.000	37.000	0.000
-19.527	2.588	0.035	3.320	0.141	2.000	0.000	36.000	0.000
-19.534	2.441	0.047	3.320	0.141	2.000	0.000	35.000	0.000
-19.542	2.295	0.035	3.320	0.141	2.000	0.000	34.000	0.000
-19.549	2.148	0.035	3.320	0.141	2.000	0.000	33.000	0.000
-19.557	2.100	0.035	3.320	0.141	2.000	0.000	32.000	0.000
-19.565	2.051	0.035	3.320	0.141	2.000	0.000	32.000	0.000
-19.572	1.953	0.035	3.320	0.141	2.000	0.000	31.000	0.000
-19.580	1.904	0.035	3.320	0.141	2.000	0.000	31.000	0.000
-19.587	1.904	0.035	3.320	0.141	2.000	0.000	31.000	0.000
-19.595	1.855	0.035	3.320	0.141	2.000	0.000	30.000	0.000
-19.603	1.807	0.035	3.320	0.141	2.000	0.000	30.000	0.000
-19.607	1.758	0.035	3.320	0.141	2.000	0.000	30.000	0.000
-19.614	1.709	0.035	3.320	0.141	2.000	0.000	29.000	0.000
-19.622	1.709	0.035	3.320	0.141	2.000	0.000	29.000	0.000
-19.629	1.660	0.035	3.320	0.141	2.000	0.000	29.000	0.000
-19.637	1.611	0.035	3.320	0.141	2.000	0.000	28.000	0.000
-19.645	1.611	0.035	3.320	0.141	2.000	0.000	28.000	0.000
-19.652	1.562	0.035	3.320	0.141	2.000	0.000	28.000	0.000
-19.660	1.514	0.035	3.320	0.141	2.000	0.000	28.000	0.000
-19.667	1.514	0.035	3.320	0.141	2.000	0.000	28.000	0.000
-19.675	1.562	0.023	3.320	0.141	2.000	0.000	28.000	0.000
-19.683	1.514	0.023	3.320	0.141	2.000	0.000	28.000	0.000
-19.690	1.514	0.023	3.320	0.141	2.000	0.000	28.000	0.000
-19.698	1.514	0.012	3.320	0.141	2.000	0.000	27.000	0.000
-19.705	1.514	0.012	3.320	0.141	2.000	0.000	27.000	0.000
-19.709	1.514	0.012	3.320	0.141	2.000	0.000	27.000	0.000
-19.717	1.514	0.000	3.320	0.141	2.000	0.000	27.000	0.000
-19.724	1.514	0.000	3.320	0.141	2.000	0.000	27.000	0.000
-19.732	1.514	0.000	3.320	0.141	2.000	0.000	27.000	0.000
-19.740	1.514	0.000	3.320	0.141	2.000	0.000	27.000	0.000
-19.747	1.465	0.000	3.320	0.141	2.000	0.000	27.000	0.000
-19.755	1.465	0.000	3.320	0.141	2.000	0.000	27.000	0.000
-19.762	1.465	-0.012	3.320	0.141	2.000	0.000	27.000	0.000
-19.770	1.465	0.000	3.320	0.141	2.000	0.000	27.000	0.000
-19.778	1.465	0.000	3.320	0.141	2.000	0.000	27.000	0.000
-19.785	1.465	0.000	3.320	0.141	2.000	0.000	27.000	0.000
-19.793	1.465	0.000	3.320	0.141	2.000	0.000	27.000	0.000
-19.800	1.465	0.000	3.320	0.141	2.000	0.000	27.000	0.000
-19.808	1.514	0.000	3.320	0.141	2.000	0.000	27.000	0.000
-19.812	1.514	0.000	3.320	0.141	2.000	0.000	27.000	0.000
-19.819	1.562	0.000	3.320	0.141	2.000	0.000	27.000	0.000
-19.827	1.514	0.000	3.320	0.141	2.000	0.000	27.000	0.000
-19.835	1.562	0.000	3.320	0.141	2.000	0.000	27.000	0.000
-19.842	1.562	0.000	3.320	0.141	2.000	0.000	27.000	0.000
-19.850	1.562	0.000	3.320	0.141	2.000	0.000	27.000	0.000
-19.857	1.562	0.000	3.320	0.141	2.000	0.000	27.000	0.000
-19.865	1.562	0.000	3.320	0.141	2.000	0.000	27.000	0.000
-19.873	1.562	0.000	3.320	0.141	2.000	0.000	27.000	0.000
-19.880	1.562	0.000	3.320	0.141	2.000	0.000	27.000	0.000
-19.888	1.562	0.000	3.320	0.141	2.000	0.000	27.000	0.000
-19.895	1.562	0.000	3.320	0.141	2.000	0.000	27.000	0.000
-19.903	1.562	0.000	3.320	0.141	2.000	0.000	27.000	0.000
-19.911	1.611	0.000	3.320	0.141	2.000	0.000	27.000	0.000
-19.914	1.660	0.000	3.320	0.141	2.000	0.000	28.000	0.000
-19.922	1.660	0.000	3.320	0.141	2.000	0.000	28.000	0.000
-19.930	1.758	0.000	3.320	0.141	2.000	0.000	28.000	0.000
-19.937	1.758	0.000	3.320	0.141	2.000	0.000	28.000	0.000
-19.945	1.758	0.000	3.320	0.141	2.000	0.000	28.000	0.000
-19.952	1.758	0.000	3.320	0.141	2.000	0.000	28.000	0.000
-19.960	1.758	0.000	3.320	0.141	2.000	0.000	28.000	0.000
-19.968	1.758	0.000	3.320	0.141	2.000	0.000	28.000	0.000
-19.975	1.758	0.000	3.320	0.141	2.000	0.000	28.000	0.000
-19.983	1.758	0.000	3.320	0.141	2.000	0.000	28.000	0.000
-19.990	1.758	-0.012	3.320	0.141	2.000	0.000	28.000	0.000
-19.998	1.758	0.000	3.320	0.141	2.000	0.000	28.000	0.000
-20.006	1.709	0.000	3.320	0.141	2.000	0.000	28.000	0.000
-20.013	1.709	0.000	3.320	0.141	2.000	0.000	28.000	0.000
-20.017	1.758	0.000	3.320	0.141	2.000	0.000	28.000	0.000
-20.025	1.758	0.000	3.320	0.141	2.000	0.000	28.000	0.000
-20.032	1.709	0.000	3.320	0.141	2.000	0.000	28.000	0.000
-20.040	1.758	0.000	3.320	0.141	2.000	0.000	28.000	0.000
-20.047	1.709	0.000	3.320	0.141	2.000	0.000	28.000	0.000
-20.055	1.709	0.000	3.320	0.141	2.000	0.000	28.000	0.000
-20.063	1.709	0.000	3.320	0.141	2.000	0.000	28.000	0.000
-20.070	1.758	0.000	3.320	0.141	2.000	0.000	28.000	0.000
-20.078	1.758	0.000	3.320	0.141	2.000	0.000	28.000	0.000
-20.085	1.709	0.000	3.320	0.141	2.000	0.000	28.000	0.000
-20.093	1.709	0.000	3.320	0.141	2.000	0.000	28.000	0.000
-20.101	1.709	-0.012	3.320	0.141	2.000	0.000	28.000	0.000
-20.108	1.709	0.000	3.320	0.141	2.000	0.000	28.000	0.000
-20.116	1.709	0.000	3.320	0.141	2.000	0.000	28.000	0.000
-20.120	1.709	0.000	3.320	0.141	2.000	0.000	28.000	0.000
-20.127	1.660	0.000	3.320	0.141	2.000	0.000	28.000	0.000
-20.135	1.660	0.000	3.320	0.141	2.000	0.000	28.000	0.000
-20.142	1.611	0.000	3.320	0.141	2.000	0.000	27.000	0.000
-20.150	1.514	0.000	3.320	0.141	2.000	0.000	27.000	0.000
-20.158	1.514	0.000	3.320	0.141	2.000	0.000	27.000	0.000
-20.165	1.514	0.000	3.320	0.141	2.000	0.000	27.000	0.000
-20.173	1.465	0.000	3.320	0.141	2.000	0.000	26.000	0.000
-20.180	1.465	0.000	3.320	0.141	2.000	0.000	26.000	0.000
-20.188	1.465	0.000	3.320	0.141	2.000	0.000	26.000	0.000
-20.196	1.465	0.000	3.320	0.141	2.000	0.000	26.000	0.000
-20.203	1.465	0.000	3.320	0.141	2.000	0.000	26.000	0.000
-20.207	1.465	0.000	3.320	0.141	2.000	0.000	26.000	0.000
-20.218	1.465	0.000	3.320	0.141	2.000	0.000	26.000	0.000
-20.222	1.416	0.000	3.320	0.141	2.000	0.000	26.000	0.000
-20.230	1.416	0.000	3.320	0.141	2.000	0.000	26.000	0.000
-20.237	1.416	-0.012	3.320	0.141	2.000	0.000	26.000	0.000
-20.245	1.416	-0.012	3.320	0.141	2.000	0.000	26.000	0.000
-20.253	1.416	0.000	3.320	0.141	2.000	0.000	26.000	0.000
-20.260	1.416	0.000	3.320	0.141	2.000	0.000	26.000	0.000
-20.268	1.416	0.000	3.320	0.141	2.000	0.000	26.000	0.000
-20.276	1.416	0.000	3.320	0.141	2.000	0.000	26.000	0.000
-20.283	1.367	0.000	3.320	0.141	2.000	0.000	26.000	0.000
-20.291	1.367	0.000	3.320	0.141	2.000	0.000	26.000	0.000
-20.298	1.367	0.000	3.320	0.141	2.000	0.000	26.000	0.000
-20.306	1.367	0.000	3.320	0.141	2.000	0.000	26.000	0.000
-20.314	1.367	0.000	3.320	0.141	2.000	0.000	26.000	0.000
-20.321	1.318	0.000	3.320	0.141	2.000	0.000	26.000	0.000
-20.325	1.367	0.000	3.320	0.141	2.000	0.000	26.000	0.000
-20.333	1.367	0.000	3.320	0.141	2.000	0.000	26.000	0.000
-20.340	1.318	0.000	3.320	0.141	2.000	0.000	26.000	0.000
-20.348	1.367	0.000	3.320	0.141	2.000	0.000	26.000	0.000
-20.355	1.318	0.000	3.320	0.141	2.000	0.000	26.000	0.000
-20.363	1.318	0.000	3.320	0.141	2.000	0.000	26.000	0.000
-20.371	1.318	0.000	3.320	0.141	2.000	0.000	26.000	0.000
-20.378	1.318	0.000	3.320	0.141	2.000	0.000	26.000	0.000
-20.386	1.318	0.000	3.320	0.141	2.000	0.000	26.000	0.000
-20.393	1.318	-0.012	3.320	0.141	2.000	0.000	26.000	0.000
-20.401	1.318	0.000	3.320	0.141	2.000	0.000	26.000	0.000
-20.409	1.318	0.000	3.320	0.141	2.000	0.000	26.000	0.000
-20.416	1.318	0.000	3.320	0.141	2.000	0.000	26.000	0.000
-20.420	1.318	0.000	3.320	0.141	2.000	0.000	26.000	0.000
-20.428	1.318	0.000	3.320	0.141	2.000	0.000	26.000	0.000
-20.435	1.318	0.000	3.320	0.141	2.000	0.000	26.000	0.000
-20.443	1.318	0.000	3.320	0.141	2.000	0.000	26.000	0.000
-20.450	1.318	0.000	3.320	0.141	2.000	0.000	26.000	0.000
-20.458	1.318	0.000	3.320	0.141	2.000	0.000	26.000	0.000
-20.466	1.270	0.000	3.320	0.141	2.000	0.000	25.000	0.000
-20.473	1.270	-0.012	3.320	0.141	2.000	0.000	25.000	0.000
-20.481	1.221	0.000	3.320	0.141	2.000	0.000	25.000	0.000
-20.488	1.172	0.000	3.320	0.141	2.000	0.000	25.000	0.000
-20.496	1.123	0.000	3.320	0.141	2.000	0.000	24.000	0.000
-20.504	1.123	0.000	3.320	0.141	2.000	0.000	24.000	0.000
-20.511	1.172	0.000	3.320	0.141	2.000	0.000	25.000	0.000
-20.515	1.172	0.000	3.320	0.141	2.000	0.000	25.000	0.000
-20.526	1.172	0.000	3.320	0.141	2.000	0.000	24.000	0.000
-20.530	1.172	0.000	3.320	0.141	2.000	0.000	25.000	0.000
-20.538	1.172	0.000	3.320	0.141	2.000	0.000	25.000	0.000
-20.545	1.172	0.000	3.320	0.141	2.000	0.000	24.000	0.000
-20.553	1.172	0.000	3.320	0.141	2.000	0.000	25.000	0.000
-20.561	1.172	0.000	3.320	0.141	2.000	0.000	25.000	0.000
-20.568	1.123	0.000	3.320	0.141	2.000	0.000	24.000	0.000
-20.576	1.172	0.000	3.320	0.141	2.000	0.000	25.000	0.000
-20.583	1.123	0.000	3.320	0.141	2.000	0.000	24.000	0.000
-20.591	1.123	0.000	3.320	0.141	2.000	0.000	24.000	0.000
-20.599	1.123	0.000	3.320	0.141	2.000	0.000	24.000	0.000
-20.606	1.123	0.000	3.320	0.141	2.000	0.000	24.000	0.000
-20.614	1.123	0.000	3.320	0.141	2.000	0.000	24.000	0.000
-20.618	1.123	0.000	3.320	0.141	2.000	0.000	24.000	0.000
-20.625	1.123	0.000	3.320	0.141	2.000	0.000	24.000	0.000
-20.633	1.123	0.000	3.320	0.141	2.000	0.000	24.000	0.000
-20.640	1.123	0.000	3.320	0.141	2.000	0.000	24.000	0.000
-20.648	1.123	0.000	3.320	0.141	2.000	0.000	24.000	0.000
-20.656	1.123	0.000	3.320	0.141	2.000	0.000	24.000	0.000
-20.663	1.123	0.000	3.320	0.141	2.000	0.000	24.000	0.000
-20.671	1.123	0.000	3.320	0.141	2.000	0.000	24.000	0.000
-20.678	1.123	-0.012	3.320	0.141	2.000	0.000	24.000	0.000
-20.686	1.123	0.000	3.320	0.141	2.000	0.000	24.000	0.000
-20.694	1.123	0.000	3.320	0.141	2.000	0.000	24.000	0.000
-20.701	1.123	0.000	3.320	0.141	2.000	0.000	24.000	0.000
-20.709	1.074	0.000	3.320	0.141	2.000	0.000	24.000	0.000
-20.716	1.025	0.000	3.320	0.141	2.000	0.000	24.000	0.000
-20.720	0.977	0.000	3.320	0.141	2.000	0.000	23.000	0.000
-20.732	0.928	0.000	3.320	0.141	2.000	0.000	23.000	0.000
-20.735	0.928	0.000	3.320	0.141	2.000	0.000	23.000	0.000
-20.743	0.928	0.000	3.320	0.141	2.000	0.000	23.000	0.000
-20.751	0.928	0.000	3.320	0.141	2.000	0.000	23.000	0.000
-20.758	0.928	0.000	3.320	0.141	2.000	0.000	23.000	0.000
-20.766	0.928	0.000	3.320	0.141	2.000	0.000	23.000	0.000
-20.773	0.928	0.000	3.320	0.141	2.000	0.000	23.000	0.000
-20.781	0.928	0.000	3.320	0.141	2.000	0.000	23.000	0.000
-20.789	0.977	0.000	3.320	0.141	2.000	0.000	23.000	0.000
-20.796	0.928	0.000	3.320	0.141	2.000	0.000	23.000	0.000
-20.804	0.977	0.000	3.320	0.141	2.000	0.000	23.000	0.000
-20.811	0.928	0.000	3.320	0.141	2.000	0.000	23.000	0.000
-20.819	0.928	0.000	3.320	0.141	2.000	0.000	23.000	0.000
-20.823	0.928	0.000	3.320	0.141	2.000	0.000	23.000	0.000
-20.830	0.928	0.000	3.320	0.141	2.000	0.000	23.000	0.000
-20.838	0.928	-0.012	3.320	0.141	2.000	0.000	23.000	0.000
-20.846	0.928	0.000	3.320	0.141	2.000	0.000	23.000	0.000
-20.853	0.928	0.000	3.320	0.141	2.000	0.000	23.000	0.000
-20.861	0.928	0.000	3.320	0.141	2.000	0.000	23.000	0.000
-20.868	0.928	0.000	3.320	0.141	2.000	0.000	23.000	0.000
-20.876	0.928	0.000	3.320	0.141	2.000	0.000	23.000	0.000
-20.884	0.928	0.000	3.320	0.141	2.000	0.000	23.000	0.000
-20.891	0.928	0.000	3.320	0.141	2.000	0.000	23.000	0.000
-20.899	0.928	-0.012	3.320	0.141	2.000	0.000	23.000	0.000
-20.907	0.928	0.000	3.320	0.141	2.000	0.000	23.000	0.000
-20.914	0.928	0.000	3.320	0.141	2.000	0.000	23.000	0.000
-20.922	0.928	0.000	3.320	0.141	2.000	0.000	23.000	0.000
-20.926	0.928	0.000	3.320	0.141	2.000	0.000	23.000	0.000
-20.933	0.928	0.000	3.320	0.141	2.000	0.000	23.000	0.000
-20.941	0.928	0.000	3.320	0.141	2.000	0.000	23.000	0.000
-20.948	0.977	0.000	3.320	0.141	2.000	0.000	23.000	0.000
-20.956	0.977	0.000	3.320	0.141	2.000	0.000	23.000	0.000
-20.964	0.928	0.000	3.320	0.141	2.000	0.000	23.000	0.000
-20.971	0.928	0.000	3.320	0.141	2.000	0.000	23.000	0.000
-20.979	0.928	0.000	3.320	0.141	2.000	0.000	23.000	0.000
-20.986	0.928	0.000	3.320	0.141	2.000	0.000	23.000	0.000
-20.994	0.928	0.000	3.320	0.141	2.000	0.000	23.000	0.000
-21.002	0.928	0.000	3.320	0.141	2.000	0.000	23.000	0.000
-21.009	0.928	0.000	3.320	0.141	2.000	0.000	23.000	0.000
-21.017	0.879	0.000	3.320	0.141	2.000	0.000	23.000	0.000
-21.024	0.830	0.000	3.320	0.141	2.000	0.000	23.000	0.000
-21.028	0.830	0.000	3.320	0.141	2.000	0.000	23.000	0.000
-21.036	0.732	0.000	3.320	0.141	2.000	0.000	22.000	0.000
-21.043	0.732	-0.012	3.320	0.141	2.000	0.000	22.000	0.000
-21.051	0.732	0.000	3.320	0.141	2.000	0.000	22.000	0.000
-21.059	0.732	0.000	3.320	0.141	2.000	0.000	22.000	0.000
-21.066	0.732	0.000	3.320	0.141	2.000	0.000	22.000	0.000
-21.074	0.732	0.000	3.320	0.141	2.000	0.000	22.000	0.000
-21.081	0.732	0.000	3.320	0.141	2.000	0.000	22.000	0.000
-21.089	0.732	0.000	3.320	0.141	2.000	0.000	22.000	0.000
-21.097	0.732	0.000	3.320	0.141	2.000	0.000	22.000	0.000
-21.104	0.732	0.000	3.320	0.141	2.000	0.000	22.000	0.000
-21.112	0.732	0.000	3.320	0.141	2.000	0.000	22.000	0.000
-21.119	0.732	0.000	3.320	0.141	2.000	0.000	22.000	0.000
-21.127	0.732	0.000	3.320	0.141	2.000	0.000	22.000	0.000
-21.131	0.732	0.000	3.320	0.141	2.000	0.000	22.000	0.000
-21.138	0.732	-0.012	3.320	0.141	2.000	0.000	22.000	0.000
-21.146	0.732	0.000	3.320	0.141	2.000	0.000	22.000	0.000
-21.154	0.732	0.000	3.320	0.141	2.000	0.000	22.000	0.000
-21.161	0.732	0.000	3.320	0.141	2.000	0.000	22.000	0.000
-21.169	0.732	0.000	3.320	0.141	2.000	0.000	22.000	0.000
-21.176	0.732	0.000	3.320	0.141	2.000	0.000	22.000	0.000
-21.184	0.732	0.000	3.320	0.141	2.000	0.000	22.000	0.000
-21.192	0.732	0.000	3.320	0.141	2.000	0.000	22.000	0.000
-21.199	0.732	0.000	3.320	0.141	2.000	0.000	22.000	0.000
-21.207	0.732	-0.012	3.320	0.141	2.000	0.000	22.000	0.000
-21.214	0.732	0.000	3.320	0.141	2.000	0.000	22.000	0.000
-21.222	0.732	0.000	3.320	0.141	2.000	0.000	22.000	0.000
-21.226	0.732	0.000	3.320	0.141	2.000	0.000	22.000	0.000
-21.233	0.732	0.000	3.320	0.141	2.000	0.000	22.000	0.000
-21.241	0.732	-0.012	3.320	0.141	2.000	0.000	22.000	0.000
-21.249	0.732	0.000	3.320	0.141	2.000	0.000	22.000	0.000
-21.256	0.732	0.000	3.320	0.141	2.000	0.000	22.000	0.000
-21.264	0.732	0.000	3.320	0.141	2.000	0.000	22.000	0.000
-21.271	0.732	0.000	3.320	0.141	2.000	0.000	22.000	0.000
-21.279	0.732	0.000	3.320	0.141	2.000	0.000	22.000	0.000
-21.287	0.732	0.000	3.320	0.141	2.000	0.000	22.000	0.000
-21.294	0.684	0.000	3.320	0.141	2.000	0.000	22.000	0.000
-21.302	0.684	0.000	3.320	0.141	2.000	0.000	22.000	0.000
-21.309	0.635	0.000	3.320	0.141	2.000	0.000	21.000	0.000
-21.317	0.635	0.000	3.320	0.141	2.000	0.000	21.000	0.000
-21.325	0.586	0.000	3.320	0.141	2.000	0.000	21.000	0.000
-21.328	0.586	-0.012	3.320	0.141	2.000	0.000	21.000	0.000
-21.336	0.586	0.000	3.320	0.141	2.000	0.000	21.000	0.000
-21.344	0.537	0.000	3.320	0.141	2.000	0.000	21.000	0.000
-21.351	0.586	0.000	3.320	0.141	2.000	0.000	21.000	0.000
-21.359	0.586	0.000	3.320	0.141	2.000	0.000	21.000	0.000
-21.366	0.586	0.000	3.320	0.141	2.000	0.000	21.000	0.000
-21.374	0.586	0.000	3.320	0.141	2.000	0.000	21.000	0.000
-21.382	0.586	0.000	3.320	0.141	2.000	0.000	21.000	0.000
-21.389	0.586	0.000	3.320	0.141	2.000	0.000	21.000	0.000
-21.397	0.586	0.000	3.320	0.141	2.000	0.000	21.000	0.000
-21.404	0.586	-0.012	3.320	0.141	2.000	0.000	21.000	0.000
-21.412	0.586	0.000	3.320	0.141	2.000	0.000	21.000	0.000
-21.420	0.586	0.000	3.320	0.141	2.000	0.000	21.000	0.000
-21.427	0.537	0.000	3.320	0.141	2.000	0.000	21.000	0.000
-21.431	0.537	0.000	3.320	0.141	2.000	0.000	21.000	0.000
-21.439	0.537	0.000	3.320	0.141	2.000	0.000	21.000	0.000
-21.446	0.586	0.000	3.320	0.141	2.000	0.000	21.000	0.000
-21.454	0.537	0.000	3.320	0.141	2.000	0.000	21.000	0.000
-21.461	0.586	0.000	3.320	0.141	2.000	0.000	21.000	0.000
-21.469	0.586	-0.012	3.320	0.141	2.000	0.000	21.000	0.000
-21.477	0.586	0.000	3.320	0.141	2.000	0.000	21.000	0.000
-21.484	0.586	0.000	3.320	0.141	2.000	0.000	21.000	0.000
-21.492	0.586	0.000	3.320	0.141	2.000	0.000	21.000	0.000
-21.499	0.586	0.000	3.320	0.141	2.000	0.000	21.000	0.000
-21.507	0.586	0.000	3.320	0.141	2.000	0.000	21.000	0.000
-21.515	0.537	0.000	3.320	0.141	2.000	0.000	21.000	0.000
-21.522	0.586	0.000	3.320	0.141	2.000	0.000	21.000	0.000
-21.530	0.586	0.000	3.320	0.141	2.000	0.000	21.000	0.000
-21.534	0.586	0.000	3.320	0.141	2.000	0.000	21.000	0.000
-21.541	0.586	0.000	3.320	0.141	2.000	0.000	21.000	0.000
-21.549	0.586	0.000	3.320	0.141	2.000	0.000	21.000	0.000
-21.557	0.537	0.000	3.320	0.141	2.000	0.000	21.000	0.000
-21.564	0.586	0.000	3.320	0.141	2.000	0.000	21.000	0.000
-21.572	0.586	0.000	3.320	0.141	2.000	0.000	21.000	0.000
-21.579	0.586	0.000	3.320	0.141	2.000	2048.000	21.000	0.000
-21.579	0.586	0.000	3.320	0.141	2.000	2048.000	21.000	0.000
-21.579	0.586	0.000	3.320	0.141	2.000	2048.000	21.000	0.000
-21.579	0.586	0.000	3.320	0.141	2.000	2048.000	21.000	0.000
-21.420	0.000	0.012	6.201	0.316	3.000	0.000	114.000	0.000
-21.450	0.000	0.000	6.201	0.316	3.000	0.000	117.000	0.000
-21.480	0.049	0.000	6.201	0.316	3.000	0.000	120.000	0.000
-21.511	0.000	0.000	6.201	0.316	3.000	0.000	122.000	0.000
-21.541	0.000	0.012	6.201	0.316	3.000	0.000	124.000	0.000
-21.568	0.000	0.000	6.201	0.316	3.000	0.000	125.000	0.000
-21.598	0.000	0.000	6.201	0.316	3.000	0.000	127.000	0.000
-21.629	0.049	0.000	6.201	0.316	3.000	0.000	129.000	0.000
-21.655	0.000	0.000	6.201	0.316	3.000	0.000	131.000	0.000
-21.686	0.049	0.000	6.201	0.316	3.000	0.000	131.000	0.000
-21.712	0.000	0.000	6.201	0.316	3.000	0.000	133.000	0.000
-21.743	0.049	0.000	6.201	0.316	3.000	0.000	135.000	0.000
-21.773	0.000	0.000	6.201	0.316	3.000	0.000	135.000	0.000
-21.804	0.049	0.000	6.201	0.316	3.000	0.000	137.000	0.000
-21.830	0.049	0.000	6.201	0.316	3.000	0.000	138.000	0.000
-21.861	0.049	0.000	6.201	0.316	3.000	0.000	139.000	0.000
-21.891	0.000	0.000	6.201	0.316	3.000	0.000	139.000	0.000
-21.921	0.000	0.012	6.201	0.316	3.000	0.000	139.000	0.000
-21.948	0.000	0.000	6.201	0.316	3.000	0.000	140.000	0.000
-21.978	0.049	0.000	6.201	0.316	3.000	0.000	141.000	0.000
-22.009	0.049	0.000	6.201	0.316	3.000	0.000	140.000	0.000
-22.035	0.000	0.000	6.201	0.316	3.000	0.000	141.000	0.000
-22.066	0.000	0.000	6.201	0.316	3.000	0.000	141.000	0.000
-22.096	0.000	0.012	6.201	0.316	3.000	0.000	141.000	0.000
-22.123	0.000	0.012	6.201	0.316	3.000	0.000	141.000	0.000
-22.153	0.000	0.000	6.201	0.316	3.000	0.000	141.000	0.000
-22.184	0.000	0.012	6.201	0.316	3.000	0.000	141.000	0.000
-22.214	0.000	0.000	6.201	0.316	3.000	0.000	140.000	0.000
-22.241	0.000	0.012	6.201	0.316	3.000	0.000	140.000	0.000
-22.271	0.000	0.000	6.201	0.316	3.000	0.000	140.000	0.000
-22.302	0.000	0.000	6.201	0.316	3.000	0.000	139.000	0.000
-22.328	0.000	0.012	6.201	0.316	3.000	0.000	139.000	0.000
-22.359	0.000	0.012	6.201	0.316	3.000	0.000	139.000	0.000
-22.389	0.000	0.000	6.201	0.316	3.000	0.000	138.000	0.000
-22.419	0.000	0.000	6.201	0.316	3.000	0.000	138.000	0.000
-22.446	0.000	0.000	6.201	0.316	3.000	0.000	137.000	0.000
-22.476	0.000	0.012	6.201	0.316	3.000	0.000	137.000	0.000
-22.507	0.000	0.000	6.201	0.316	3.000	0.000	136.000	0.000
-22.533	0.000	0.000	6.201	0.316	3.000	0.000	136.000	0.000
-22.564	0.000	0.000	6.201	0.316	3.000	0.000	135.000	0.000
-22.594	0.000	0.012	6.201	0.316	3.000	0.000	135.000	0.000
-22.625	0.000	0.012	6.201	0.316	3.000	0.000	134.000	0.000
-22.651	-0.049	0.000	6.201	0.316	3.000	0.000	133.000	0.000
-22.682	-0.049	0.012	6.201	0.316	3.000	0.000	132.000	0.000
-22.712	-0.098	0.000	6.201	0.316	3.000	0.000	131.000	0.000
-22.739	-0.098	0.000	6.201	0.316	3.000	0.000	130.000	0.000
-22.769	-0.146	0.000	6.201	0.316	3.000	0.000	129.000	0.000
-22.799	-0.146	0.000	6.201	0.316	3.000	0.000	128.000	0.000
-22.830	-0.146	0.000	6.201	0.316	3.000	0.000	127.000	0.000
-22.857	-0.195	0.000	6.201	0.316	3.000	0.000	127.000	0.000
-22.887	-0.146	0.000	6.201	0.316	3.000	0.000	127.000	0.000
-22.917	-0.146	0.000	6.201	0.316	3.000	0.000	127.000	0.000
-22.944	-0.195	0.000	6.201	0.316	3.000	0.000	127.000	0.000
-22.974	-0.146	0.000	6.201	0.316	3.000	0.000	126.000	0.000
-23.005	-0.146	0.000	6.201	0.316	3.000	0.000	126.000	0.000
-23.035	-0.146	0.012	6.201	0.316	3.000	0.000	126.000	0.000
-23.062	-0.146	0.012	6.201	0.316	3.000	0.000	126.000	0.000
-23.092	-0.146	0.012	6.201	0.316	3.000	0.000	124.000	0.000
-23.123	-0.195	0.012	6.201	0.316	3.000	0.000	124.000	0.000
-23.149	-0.195	0.012	6.201	0.316	3.000	0.000	124.000	0.000
-23.180	-0.195	0.000	6.201	0.316	3.000	0.000	124.000	0.000
-23.210	-0.146	0.000	6.201	0.316	3.000	0.000	125.000	0.000
-23.237	-0.146	0.000	6.201	0.316	3.000	0.000	124.000	0.000
-23.267	-0.146	0.000	6.201	0.316	3.000	0.000	125.000	0.000
-23.297	-0.195	0.000	6.201	0.316	3.000	0.000	124.000	0.000
-23.328	-0.146	0.000	6.201	0.316	3.000	0.000	125.000	0.000
-23.354	-0.146	0.000	6.201	0.316	3.000	0.000	124.000	0.000
-23.385	-0.195	0.000	6.201	0.316	3.000	0.000	124.000	0.000
-23.415	-0.146	0.000	6.201	0.316	3.000	0.000	124.000	0.000
-23.442	-0.146	0.012	6.201	0.316	3.000	0.000	125.000	0.000
-23.472	-0.195	0.000	6.201	0.316	3.000	0.000	124.000	0.000
-23.503	-0.195	0.000	6.201	0.316	3.000	0.000	124.000	0.000
-23.529	-0.146	0.000	6.201	0.316	3.000	0.000	125.000	0.000
-23.560	-0.195	0.012	6.201	0.316	3.000	0.000	124.000	0.000
-23.590	-0.195	0.012	6.201	0.316	3.000	0.000	125.000	0.000
-23.621	-0.146	0.000	6.201	0.316	3.000	0.000	124.000	0.000
-23.647	-0.146	0.000	6.201	0.316	3.000	0.000	124.000	0.000
-23.678	-0.146	0.012	6.201	0.316	3.000	0.000	126.000	0.000
-23.708	-0.195	0.000	6.201	0.316	3.000	0.000	125.000	0.000
-23.735	-0.195	0.000	6.201	0.316	3.000	0.000	125.000	0.000
-23.765	-0.146	0.000	6.201	0.316	3.000	0.000	126.000	0.000
-23.795	-0.195	0.000	6.201	0.316	3.000	0.000	125.000	0.000
-23.822	-0.146	0.012	6.201	0.316	3.000	0.000	125.000	0.000
-23.852	-0.195	0.012	6.201	0.316	3.000	0.000	125.000	0.000
-23.883	-0.195	0.000	6.201	0.316	3.000	0.000	127.000	0.000
-23.913	-0.146	0.000	6.201	0.316	3.000	0.000	127.000	0.000
-23.940	-0.146	0.000	6.201	0.316	3.000	0.000	127.000	0.000
-23.970	-0.195	0.000	6.201	0.316	3.000	0.000	126.000	0.000
-24.001	-0.195	0.012	6.201	0.316	3.000	0.000	126.000	0.000
-24.027	-0.146	0.000	6.201	0.316	3.000	0.000	127.000	0.000
-24.058	-0.146	0.000	6.201	0.316	3.000	0.000	127.000	0.000
-24.088	-0.146	0.012	6.201	0.316	3.000	0.000	127.000	0.000
-24.119	-0.195	0.012	6.201	0.316	3.000	0.000	127.000	0.000
-24.145	-0.146	0.012	6.201	0.316	3.000	0.000	127.000	0.000
-24.176	-0.146	0.012	6.201	0.316	3.000	0.000	127.000	0.000
-24.206	-0.195	0.000	6.201	0.316	3.000	0.000	127.000	0.000
-24.233	-0.195	0.000	6.201	0.316	3.000	0.000	128.000	0.000
-24.263	-0.195	0.000	6.201	0.316	3.000	0.000	127.000	0.000
-24.293	-0.146	0.000	6.201	0.316	3.000	0.000	128.000	0.000
-24.324	-0.195	0.000	6.201	0.316	3.000	0.000	127.000	0.000
-24.350	-0.195	0.012	6.201	0.316	3.000	0.000	127.000	0.000
-24.381	-0.195	0.000	6.201	0.316	3.000	0.000	127.000	0.000
-24.411	-0.146	0.012	6.201	0.316	3.000	0.000	128.000	0.000
-24.438	-0.195	0.000	6.201	0.316	3.000	0.000	127.000	0.000
-24.468	-0.146	0.000	6.201	0.316	3.000	0.000	128.000	0.000
-24.499	-0.146	0.000	6.201	0.316	3.000	0.000	128.000	0.000
-24.529	-0.195	0.000	6.201	0.316	3.000	0.000	127.000	0.000
-24.556	-0.146	0.000	6.201	0.316	3.000	0.000	128.000	0.000
-24.586	-0.195	0.000	6.201	0.316	3.000	0.000	127.000	0.000
-24.616	-0.195	0.012	6.201	0.316	3.000	0.000	127.000	0.000
-24.643	-0.195	0.000	6.201	0.316	3.000	0.000	127.000	0.000
-24.673	-0.195	0.000	6.201	0.316	3.000	0.000	127.000	0.000
-24.704	-0.195	0.000	6.201	0.316	3.000	0.000	127.000	0.000
-24.730	-0.195	0.000	6.201	0.316	3.000	0.000	127.000	0.000
-24.761	-0.195	0.000	6.201	0.316	3.000	0.000	127.000	0.000
-24.791	-0.195	0.000	6.201	0.316	3.000	0.000	127.000	0.000
-24.822	-0.195	0.012	6.201	0.316	3.000	0.000	127.000	0.000
-24.848	-0.195	0.000	6.201	0.316	3.000	0.000	127.000	0.000
-24.879	-0.195	0.000	6.201	0.316	3.000	0.000	127.000	0.000
-24.909	-0.195	0.000	6.201	0.316	3.000	0.000	127.000	0.000
-24.936	-0.195	0.000	6.201	0.316	3.000	0.000	127.000	0.000
-24.966	-0.195	0.000	6.201	0.316	3.000	0.000	127.000	0.000
-24.997	-0.195	0.000	6.201	0.316	3.000	0.000	127.000	0.000
-25.027	-0.195	0.012	6.201	0.316	3.000	0.000	127.000	0.000
-25.054	-0.195	0.000	6.201	0.316	3.000	0.000	127.000	0.000
-25.084	-0.195	0.012	6.201	0.316	3.000	0.000	126.000	0.000
-25.114	-0.195	0.012	6.201	0.316	3.000	0.000	126.000	0.000
-25.141	-0.195	0.012	6.201	0.316	3.000	0.000	126.000	0.000
-25.171	-0.195	0.000	6.201	0.316	3.000	0.000	126.000	0.000
-25.202	-0.195	0.000	6.201	0.316	3.000	0.000	126.000	0.000
-25.228	-0.244	0.000	6.201	0.316	3.000	0.000	125.000	0.000
-25.259	-0.293	0.000	6.201	0.316	3.000	0.000	124.000	0.000
-25.289	-0.342	0.012	6.201	0.316	3.000	0.000	123.000	0.000
-25.320	-0.391	0.012	6.201	0.316	3.000	0.000	122.000	0.000
-25.346	-0.391	0.000	6.201	0.316	3.000	0.000	122.000	0.000
-25.377	-0.391	0.012	6.201	0.316	3.000	0.000	122.000	0.000
-25.407	-0.391	0.012	6.201	0.316	3.000	0.000	122.000	0.000
-25.434	-0.391	0.000	6.201	0.316	3.000	0.000	122.000	0.000
-25.464	-0.439	0.000	6.201	0.316	3.000	0.000	121.000	0.000
-25.495	-0.439	0.000	6.201	0.316	3.000	0.000	121.000	0.000
-25.521	-0.439	0.000	6.201	0.316	3.000	0.000	121.000	0.000
-25.552	-0.439	0.012	6.201	0.316	3.000	0.000	121.000	0.000
-25.582	-0.439	0.000	6.201	0.316	3.000	0.000	121.000	0.000
-25.612	-0.439	0.000	6.201	0.316	3.000	0.000	121.000	0.000
-25.639	-0.439	0.012	6.201	0.316	3.000	0.000	121.000	0.000
-25.669	-0.439	0.000	6.201	0.316	3.000	0.000	121.000	0.000
-25.700	-0.488	0.000	6.201	0.316	3.000	0.000	120.000	0.000
-25.726	-0.488	0.000	6.201	0.316	3.000	0.000	120.000	0.000
-25.757	-0.537	0.000	6.201	0.316	3.000	0.000	119.000	0.000
-25.787	-0.586	0.000	6.201	0.316	3.000	0.000	118.000	0.000
-25.818	-0.586	0.000	6.201	0.316	3.000	0.000	118.000	0.000
-25.844	-0.586	0.000	6.201	0.316	3.000	0.000	118.000	0.000
-25.875	-0.537	0.000	6.201	0.316	3.000	0.000	118.000	0.000
-25.905	-0.537	0.000	6.201	0.316	3.000	0.000	119.000	0.000
-25.932	-0.586	0.000	6.201	0.316	3.000	0.000	118.000	0.000
-25.962	-0.537	0.000	6.201	0.316	3.000	0.000	119.000	0.000
-25.992	-0.586	0.000	6.201	0.316	3.000	0.000	118.000	0.000
-26.023	-0.586	0.000	6.201	0.316	3.000	0.000	118.000	0.000
-26.050	-0.586	0.000	6.201	0.316	3.000	0.000	119.000	0.000
-26.080	-0.586	0.000	6.201	0.316	3.000	0.000	118.000	0.000
-26.110	-0.537	0.012	6.201	0.316	3.000	0.000	119.000	0.000
-26.137	-0.537	0.000	6.201	0.316	3.000	0.000	118.000	0.000
-26.167	-0.586	0.000	6.201	0.316	3.000	0.000	118.000	0.000
-26.198	-0.586	0.000	6.201	0.316	3.000	0.000	118.000	0.000
-26.228	-0.586	0.000	6.201	0.316	3.000	0.000	118.000	0.000
-26.255	-0.537	0.000	6.201	0.316	3.000	0.000	119.000	0.000
-26.285	-0.586	0.000	6.201	0.316	3.000	0.000	118.000	0.000
-26.316	-0.586	0.000	6.201	0.316	3.000	0.000	118.000	0.000
-26.342	-0.586	0.000	6.201	0.316	3.000	0.000	118.000	0.000
-26.373	-0.586	0.000	6.201	0.316	3.000	0.000	118.000	0.000
-26.403	-0.586	0.012	6.201	0.316	3.000	0.000	118.000	0.000
-26.433	-0.586	0.012	6.201	0.316	3.000	0.000	118.000	0.000
-26.460	-0.586	0.012	6.201	0.316	3.000	0.000	118.000	0.000
-26.490	-0.586	0.012	6.201	0.316	3.000	0.000	118.000	0.000
-26.521	-0.586	0.012	6.201	0.316	3.000	0.000	118.000	0.000
-26.547	-0.586	0.000	6.201	0.316	3.000	0.000	118.000	0.000
-26.578	-0.586	0.000	6.201	0.316	3.000	0.000	118.000	0.000
-26.608	-0.586	0.000	6.201	0.316	3.000	0.000	118.000	0.000
-26.635	-0.586	0.000	6.201	0.316	3.000	0.000	118.000	0.000
-26.665	-0.586	0.012	6.201	0.316	3.000	0.000	118.000	0.000
-26.696	-0.586	0.000	6.201	0.316	3.000	0.000	118.000	0.000
-26.726	-0.586	0.000	6.201	0.316	3.000	0.000	118.000	0.000
-26.753	-0.586	0.000	6.201	0.316	3.000	0.000	118.000	0.000
-26.783	-0.635	0.012	6.201	0.316	3.000	0.000	117.000	0.000
-26.814	-0.635	0.012	6.201	0.316	3.000	0.000	117.000	0.000
-26.840	-0.684	0.000	6.201	0.316	3.000	0.000	116.000	0.000
-26.871	-0.732	0.000	6.201	0.316	3.000	0.000	115.000	0.000
-26.901	-0.781	0.000	6.201	0.316	3.000	0.000	114.000	0.000
-26.928	-0.781	0.000	6.201	0.316	3.000	0.000	114.000	0.000
-26.958	-0.781	0.000	6.201	0.316	3.000	0.000	114.000	0.000
-26.988	-0.781	0.000	6.201	0.316	3.000	0.000	113.000	0.000
-27.019	-0.732	0.000	6.201	0.316	3.000	0.000	114.000	0.000
-27.045	-0.781	0.012	6.201	0.316	3.000	0.000	113.000	0.000
-27.076	-0.732	0.012	6.201	0.316	3.000	0.000	114.000	0.000
-27.106	-0.732	0.000	6.201	0.316	3.000	0.000	114.000	0.000
-27.133	-0.781	0.012	6.201	0.316	3.000	0.000	113.000	0.000
-27.163	-0.781	0.000	6.201	0.316	3.000	0.000	114.000	0.000
-27.194	-0.732	0.000	6.201	0.316	3.000	0.000	114.000	0.000
-27.235	-0.781	0.000	6.201	0.316	3.000	0.000	113.000	0.000
-27.251	-0.781	0.012	6.201	0.316	3.000	0.000	113.000	0.000
-27.281	-0.781	0.000	6.201	0.316	3.000	0.000	113.000	0.000
-27.311	-0.781	0.012	6.201	0.316	3.000	0.000	113.000	0.000
-27.338	-0.732	0.000	6.201	0.316	3.000	0.000	114.000	0.000
-27.369	-0.781	0.000	6.201	0.316	3.000	0.000	113.000	0.000
-27.399	-0.781	0.012	6.201	0.316	3.000	0.000	113.000	0.000
-27.426	-0.781	0.000	6.201	0.316	3.000	0.000	113.000	0.000
-27.456	-0.781	0.000	6.201	0.316	3.000	0.000	113.000	0.000
-27.486	-0.781	0.012	6.201	0.316	3.000	0.000	113.000	0.000
-27.517	-0.781	0.012	6.201	0.316	3.000	0.000	113.000	0.000
-27.543	-0.781	0.012	6.201	0.316	3.000	0.000	113.000	0.000
-27.574	-0.781	0.000	6.201	0.316	3.000	0.000	113.000	0.000
-27.604	-0.781	0.012	6.201	0.316	3.000	0.000	113.000	0.000
-27.631	-0.781	0.000	6.201	0.316	3.000	0.000	113.000	0.000
-27.661	-0.781	0.012	6.201	0.316	3.000	0.000	113.000	0.000
-27.692	-0.781	0.000	6.201	0.316	3.000	0.000	113.000	0.000
-27.722	-0.781	0.000	6.201	0.316	3.000	0.000	113.000	0.000
-27.749	-0.781	0.012	6.201	0.316	3.000	0.000	113.000	0.000
-27.779	-0.830	0.000	6.201	0.316	3.000	0.000	112.000	0.000
-27.809	-0.830	0.000	6.201	0.316	3.000	0.000	112.000	0.000
-27.836	-0.879	0.012	6.201	0.316	3.000	0.000	111.000	0.000
-27.866	-0.928	0.000	6.201	0.316	3.000	0.000	110.000	0.000
-27.897	-0.977	0.012	6.201	0.316	3.000	0.000	109.000	0.000
-27.927	-0.928	0.000	6.201	0.316	3.000	0.000	109.000	0.000
-27.954	-0.928	0.000	6.201	0.316	3.000	0.000	110.000	0.000
-27.984	-0.928	0.012	6.201	0.316	3.000	0.000	110.000	0.000
-28.015	-0.977	0.012	6.201	0.316	3.000	0.000	109.000	0.000
-28.041	-0.928	0.012	6.201	0.316	3.000	0.000	110.000	0.000
-28.072	-0.928	0.000	6.201	0.316	3.000	0.000	110.000	0.000
-28.102	-0.977	0.012	6.201	0.316	3.000	0.000	110.000	0.000
-28.129	-0.928	0.000	6.201	0.316	3.000	0.000	110.000	0.000
-28.159	-0.977	0.012	6.201	0.316	3.000	0.000	110.000	0.000
-28.190	-0.928	0.000	6.201	0.316	3.000	0.000	110.000	0.000
-28.220	-0.928	0.000	6.201	0.316	3.000	0.000	110.000	0.000
-28.247	-0.928	0.012	6.201	0.316	3.000	0.000	110.000	0.000
-28.277	-0.977	0.012	6.201	0.316	3.000	0.000	110.000	0.000
-28.307	-0.928	0.000	6.201	0.316	3.000	0.000	110.000	0.000
-28.334	-0.928	0.012	6.201	0.316	3.000	0.000	109.000	0.000
-28.364	-0.977	0.000	6.201	0.316	3.000	0.000	109.000	0.000
-28.395	-0.928	0.012	6.201	0.316	3.000	0.000	110.000	0.000
-28.425	-0.977	0.000	6.201	0.316	3.000	0.000	109.000	0.000
-28.452	-0.928	0.012	6.201	0.316	3.000	0.000	110.000	0.000
-28.482	-0.977	0.000	6.201	0.316	3.000	0.000	109.000	0.000
-28.513	-0.928	0.012	6.201	0.316	3.000	0.000	110.000	0.000
-28.539	-0.977	0.000	6.201	0.316	3.000	0.000	109.000	0.000
-28.570	-0.977	0.000	6.201	0.316	3.000	0.000	109.000	0.000
-28.600	-0.928	0.000	6.201	0.316	3.000	0.000	110.000	0.000
-28.627	-0.977	0.000	6.201	0.316	3.000	0.000	109.000	0.000
-28.657	-0.977	0.000	6.201	0.316	3.000	0.000	110.000	0.000
-28.688	-0.928	0.012	6.201	0.316	3.000	0.000	109.000	0.000
-28.718	-0.977	0.000	6.201	0.316	3.000	0.000	109.000	0.000
-28.745	-0.977	0.012	6.201	0.316	3.000	0.000	109.000	0.000
-28.775	-0.928	0.012	6.201	0.316	3.000	0.000	109.000	0.000
-28.805	-0.977	0.000	6.201	0.316	3.000	0.000	109.000	0.000
-28.832	-0.928	0.000	6.201	0.316	3.000	0.000	109.000	0.000
-28.862	-0.928	0.012	6.201	0.316	3.000	0.000	109.000	0.000
-28.893	-0.977	0.000	6.201	0.316	3.000	0.000	109.000	0.000
-28.919	-0.977	0.000	6.201	0.316	3.000	0.000	109.000	0.000
-28.950	-0.977	0.000	6.201	0.316	3.000	0.000	109.000	0.000
-28.980	-0.977	0.000	6.201	0.316	3.000	0.000	109.000	0.000
-29.011	-0.977	0.000	6.201	0.316	3.000	0.000	109.000	0.000
-29.037	-0.977	0.000	6.201	0.316	3.000	0.000	110.000	0.000
-29.068	-0.977	0.000	6.201	0.316	3.000	0.000	109.000	0.000
-29.098	-0.977	0.000	6.201	0.316	3.000	0.000	109.000	0.000
-29.125	-0.977	0.000	6.201	0.316	3.000	0.000	109.000	0.000
-29.155	-0.977	0.000	6.201	0.316	3.000	0.000	109.000	0.000
-29.185	-0.977	0.000	6.201	0.316	3.000	0.000	109.000	0.000
-29.216	-0.977	0.012	6.201	0.316	3.000	0.000	109.000	0.000
-29.243	-0.977	0.000	6.201	0.316	3.000	0.000	109.000	0.000
-29.273	-0.977	0.000	6.201	0.316	3.000	0.000	109.000	0.000
-29.303	-0.977	0.000	6.201	0.316	3.000	0.000	109.000	0.000
-29.330	-0.977	0.000	6.201	0.316	3.000	0.000	109.000	0.000
-29.360	-0.977	0.000	6.201	0.316	3.000	0.000	109.000	0.000
-29.391	-0.977	0.000	6.201	0.316	3.000	0.000	109.000	0.000
-29.421	-0.977	0.000	6.201	0.316	3.000	0.000	109.000	0.000
-29.448	-0.977	0.000	6.201	0.316	3.000	0.000	109.000	0.000
-29.478	-0.977	0.000	6.201	0.316	3.000	0.000	109.000	0.000
-29.509	-1.025	0.012	6.201	0.316	3.000	0.000	108.000	0.000
-29.535	-1.025	0.000	6.201	0.316	3.000	0.000	108.000	0.000
-29.566	-1.074	0.000	6.201	0.316	3.000	0.000	107.000	0.000
-29.596	-1.123	0.000	6.201	0.316	3.000	0.000	106.000	0.000
-29.626	-1.172	0.012	6.201	0.316	3.000	0.000	105.000	0.000
-29.653	-1.172	0.000	6.201	0.316	3.000	0.000	105.000	0.000
-29.683	-1.172	0.000	6.201	0.316	3.000	0.000	105.000	0.000
-29.714	-1.123	0.000	6.201	0.316	3.000	0.000	106.000	0.000
-29.740	-1.172	0.012	6.201	0.316	3.000	0.000	105.000	0.000
-29.771	-1.123	0.000	6.201	0.316	3.000	0.000	105.000	0.000
-29.801	-1.123	0.000	6.201	0.316	3.000	0.000	105.000	0.000
-29.832	-1.172	0.012	6.201	0.316	3.000	0.000	105.000	0.000
-29.858	-1.123	0.000	6.201	0.316	3.000	0.000	106.000	0.000
-29.889	-1.123	0.012	6.201	0.316	3.000	0.000	106.000	0.000
-29.919	-1.123	0.000	6.201	0.316	3.000	0.000	106.000	0.000
-29.946	-1.123	0.012	6.201	0.316	3.000	0.000	106.000	0.000
-29.976	-1.172	0.012	6.201	0.316	3.000	0.000	105.000	0.000
-30.007	-1.123	0.000	6.201	0.316	3.000	0.000	106.000	0.000
-30.033	-1.172	0.000	6.201	0.316	3.000	0.000	105.000	0.000
-30.064	-1.123	0.012	6.201	0.316	3.000	0.000	106.000	0.000
-30.094	-1.172	0.000	6.201	0.316	3.000	0.000	105.000	0.000
-30.121	-1.123	0.012	6.201	0.316	3.000	0.000	106.000	0.000
-30.151	-1.123	0.000	6.201	0.316	3.000	0.000	106.000	0.000
-30.181	-1.123	0.012	6.201	0.316	3.000	0.000	106.000	0.000
-30.212	-1.123	0.000	6.201	0.316	3.000	0.000	106.000	0.000
-30.238	-1.123	0.000	6.201	0.316	3.000	0.000	106.000	0.000
-30.269	-1.123	0.012	6.201	0.316	3.000	0.000	106.000	0.000
-30.299	-1.123	0.000	6.201	0.316	3.000	0.000	106.000	0.000
-30.326	-1.172	0.000	6.201	0.316	3.000	0.000	106.000	0.000
-30.356	-1.123	0.000	6.201	0.316	3.000	0.000	106.000	0.000
-30.387	-1.123	0.012	6.201	0.316	3.000	0.000	106.000	0.000
-30.417	-1.123	0.012	6.201	0.316	3.000	0.000	106.000	0.000
-30.444	-1.123	0.000	6.201	0.316	3.000	0.000	106.000	0.000
-30.474	-1.074	0.000	6.201	0.316	3.000	0.000	107.000	0.000
-30.504	-1.025	0.000	6.201	0.316	3.000	0.000	108.000	0.000
-30.531	-0.977	0.000	6.201	0.316	3.000	0.000	109.000	0.000
-30.562	-0.928	0.000	6.201	0.316	3.000	0.000	110.000	0.000
-30.592	-0.879	0.000	6.201	0.316	3.000	0.000	111.000	0.000
-30.619	-0.830	0.000	6.201	0.316	3.000	0.000	112.000	0.000
-30.649	-0.781	0.012	6.201	0.316	3.000	0.000	113.000	0.000
-30.679	-0.732	0.000	6.201	0.316	3.000	0.000	114.000	0.000
-30.710	-0.635	0.000	6.201	0.316	3.000	0.000	116.000	0.000
-30.736	-0.537	0.000	6.201	0.316	3.000	0.000	118.000	0.000
-30.767	-0.488	0.000	6.201	0.316	3.000	0.000	119.000	0.000
-30.797	-0.342	0.000	6.201	0.316	3.000	0.000	122.000	0.000
-30.824	-0.244	0.012	6.201	0.316	3.000	0.000	124.000	0.000
-30.854	-0.146	0.012	6.201	0.316	3.000	0.000	126.000	0.000
-30.885	0.000	0.000	6.201	0.316	3.000	0.000	129.000	0.000
-30.915	0.098	0.000	6.201	0.316	3.000	0.000	131.000	0.000
-30.942	0.244	0.000	6.201	0.316	3.000	0.000	134.000	0.000
-30.972	0.391	0.000	6.201	0.316	3.000	0.000	138.000	0.000
-31.002	0.537	0.012	6.201	0.316	3.000	0.000	141.000	0.000
-31.029	0.684	0.012	6.201	0.316	3.000	0.000	144.000	0.000
-31.059	0.830	0.012	6.201	0.316	3.000	0.000	147.000	0.000
-31.090	1.025	0.012	6.201	0.316	3.000	0.000	151.000	0.000
-31.116	1.221	0.012	6.201	0.316	3.000	0.000	155.000	0.000
-31.147	1.367	0.023	6.201	0.316	3.000	0.000	158.000	0.000
-31.177	1.562	0.035	6.201	0.316	3.000	0.000	163.000	0.000
-31.204	1.709	0.047	6.201	0.316	3.000	0.000	166.000	0.000
-31.234	1.904	0.059	6.201	0.316	3.000	0.000	170.000	0.000
-31.265	2.100	0.047	6.201	0.316	3.000	0.000	174.000	0.000
-31.295	2.246	0.059	6.201	0.316	3.000	0.000	177.000	0.000
-31.322	2.441	0.047	6.201	0.316	3.000	0.000	181.000	0.000
-31.352	2.588	0.059	6.201	0.316	3.000	0.000	184.000	0.000
-31.383	2.783	0.059	6.201	0.316	3.000	0.000	188.000	0.000
-31.409	2.979	0.059	6.201	0.316	3.000	0.000	193.000	0.000
-31.440	3.125	0.059	6.201	0.316	3.000	0.000	196.000	0.000
-31.470	3.320	0.059	6.201	0.316	3.000	0.000	200.000	0.000
-31.497	3.516	0.059	6.201	0.316	3.000	0.000	204.000	0.000
-31.527	3.662	0.059	6.201	0.316	3.000	0.000	208.000	0.000
-31.557	3.857	0.070	6.201	0.316	3.000	0.000	212.000	0.000
-31.588	4.004	0.070	6.201	0.316	3.000	0.000	215.000	0.000
-31.614	4.102	0.082	6.201	0.316	3.000	0.000	217.000	0.000
-31.645	4.248	0.105	6.201	0.316	3.000	0.000	221.000	0.000
-31.675	4.346	0.105	6.201	0.316	3.000	0.000	223.000	0.000
-31.702	4.492	0.094	6.201	0.316	3.000	0.000	226.000	0.000
-31.732	4.590	0.094	6.201	0.316	3.000	0.000	229.000	0.000
-31.763	4.736	0.094	6.201	0.316	3.000	0.000	232.000	0.000
-31.793	4.883	0.105	6.201	0.316	3.000	0.000	235.000	0.000
-31.820	5.029	0.105	6.201	0.316	3.000	0.000	239.000	0.000
-31.850	5.176	0.105	6.201	0.316	3.000	0.000	242.000	0.000
-31.877	5.371	0.129	6.201	0.316	3.000	0.000	247.000	0.000
-31.903	5.566	0.176	6.201	0.316	3.000	0.000	251.000	0.000
-31.930	5.713	0.246	6.201	0.316	3.000	0.000	254.000	0.000
-31.957	5.908	0.340	6.201	0.316	3.000	0.000	259.000	0.000
-31.983	6.055	0.480	6.201	0.316	3.000	0.000	262.000	0.000
-32.006	6.201	0.679	6.201	0.316	3.000	0.000	266.000	0.000
-32.029	6.396	0.937	6.201	0.316	3.000	0.000	270.000	0.000
-32.029	6.396	0.937	6.201	0.316	3.000	0.000	270.000	0.000
-32.029	6.396	0.937	6.201	0.316	3.000	8.000	270.000	0.000
-32.029	6.396	0.937	6.201	0.316	3.000	8.000	270.000	0.000
